YOKOGAWA AQ6370D - S/N: 91S206859
#Date: 08/08/2023 Time: 17:18:38,	
A_WL(nm),	A_I(mW)
1.557600E+3,	18.171893E-12
1.557604E+3,	38.126873E-12
1.557608E+3,	27.700921E-12
1.557612E+3,	13.268545E-12
1.557616E+3,	19.069844E-12
1.557620E+3,	8.835650E-12
1.557624E+3,	18.105982E-12
1.557628E+3,	24.452388E-12
1.557632E+3,	23.037009E-12
1.557636E+3,	7.267927E-12
1.557640E+3,	22.173308E-12
1.557644E+3,	10.077056E-12
1.557648E+3,	33.368635E-12
1.557652E+3,	39.030181E-12
1.557656E+3,	40.869678E-12
1.557660E+3,	51.415892E-12
1.557664E+3,	55.968519E-12
1.557668E+3,	62.648835E-12
1.557672E+3,	72.151789E-12
1.557676E+3,	104.225237E-12
1.557680E+3,	76.042523E-12
1.557684E+3,	85.535199E-12
1.557688E+3,	86.074448E-12
1.557692E+3,	86.787685E-12
1.557696E+3,	79.918835E-12
1.557700E+3,	84.659178E-12
1.557704E+3,	62.265657E-12
1.557708E+3,	53.305969E-12
1.557712E+3,	66.466638E-12
1.557716E+3,	44.753758E-12
1.557720E+3,	40.636486E-12
1.557724E+3,	34.055167E-12
1.557728E+3,	20.177017E-12
1.557732E+3,	16.760870E-12
1.557736E+3,	31.133322E-12
1.557740E+3,	10.184031E-12
1.557744E+3,	18.061513E-12
1.557748E+3,	7.257096E-12
1.557752E+3,	23.357258E-12
1.557756E+3,	19.229349E-12
1.557760E+3,	34.851841E-12
1.557764E+3,	41.386650E-12
1.557768E+3,	58.113224E-12
1.557772E+3,	53.745594E-12
1.557776E+3,	84.103521E-12
1.557780E+3,	94.753245E-12
1.557784E+3,	108.750934E-12
1.557788E+3,	108.825357E-12
1.557792E+3,	149.500234E-12
1.557796E+3,	142.260792E-12
1.557800E+3,	160.685648E-12
1.557804E+3,	163.722531E-12
1.557808E+3,	162.792391E-12
1.557812E+3,	167.036682E-12
1.557816E+3,	163.651101E-12
1.557820E+3,	171.152070E-12
1.557824E+3,	155.877821E-12
1.557828E+3,	137.741047E-12
1.557832E+3,	123.609554E-12
1.557836E+3,	117.477610E-12
1.557840E+3,	79.451199E-12
1.557844E+3,	51.630023E-12
1.557848E+3,	48.110430E-12
1.557852E+3,	24.555891E-12
1.557856E+3,	14.601316E-12
1.557860E+3,	6.973115E-12
1.557864E+3,	2.788621E-12
1.557868E+3,	29.505138E-12
1.557872E+3,	44.607735E-12
1.557876E+3,	52.616625E-12
1.557880E+3,	78.704623E-12
1.557884E+3,	114.149364E-12
1.557888E+3,	147.269968E-12
1.557892E+3,	205.787219E-12
1.557896E+3,	238.727600E-12
1.557900E+3,	275.247772E-12
1.557904E+3,	314.237672E-12
1.557908E+3,	359.845812E-12
1.557912E+3,	398.520202E-12
1.557916E+3,	442.508776E-12
1.557920E+3,	460.507539E-12
1.557924E+3,	483.953527E-12
1.557928E+3,	505.697331E-12
1.557932E+3,	487.964008E-12
1.557936E+3,	485.171371E-12
1.557940E+3,	471.954341E-12
1.557944E+3,	403.600594E-12
1.557948E+3,	382.610757E-12
1.557952E+3,	327.634384E-12
1.557956E+3,	254.144232E-12
1.557960E+3,	229.521335E-12
1.557964E+3,	192.704795E-12
1.557968E+3,	125.681135E-12
1.557972E+3,	90.285192E-12
1.557976E+3,	58.067000E-12
1.557980E+3,	53.742930E-12
1.557984E+3,	60.737244E-12
1.557988E+3,	67.817370E-12
1.557992E+3,	126.176982E-12
1.557996E+3,	187.532732E-12
1.558000E+3,	257.477583E-12
1.558004E+3,	347.122427E-12
1.558008E+3,	467.273225E-12
1.558012E+3,	609.862622E-12
1.558016E+3,	694.599837E-12
1.558020E+3,	803.389585E-12
1.558024E+3,	952.736957E-12
1.558028E+3,	1.051669E-9
1.558032E+3,	1.147213E-9
1.558036E+3,	1.239355E-9
1.558040E+3,	1.296609E-9
1.558044E+3,	1.317842E-9
1.558048E+3,	1.328878E-9
1.558052E+3,	1.286763E-9
1.558056E+3,	1.249493E-9
1.558060E+3,	1.170012E-9
1.558064E+3,	1.056141E-9
1.558068E+3,	924.386883E-12
1.558072E+3,	808.898424E-12
1.558076E+3,	642.428460E-12
1.558080E+3,	505.201085E-12
1.558084E+3,	400.582647E-12
1.558088E+3,	318.027428E-12
1.558092E+3,	226.721665E-12
1.558096E+3,	174.847362E-12
1.558100E+3,	185.469558E-12
1.558104E+3,	233.919865E-12
1.558108E+3,	345.860294E-12
1.558112E+3,	452.099404E-12
1.558116E+3,	655.789612E-12
1.558120E+3,	950.192372E-12
1.558124E+3,	1.246516E-9
1.558128E+3,	1.506801E-9
1.558132E+3,	1.930367E-9
1.558136E+3,	2.253854E-9
1.558140E+3,	2.542874E-9
1.558144E+3,	2.832936E-9
1.558148E+3,	3.180270E-9
1.558152E+3,	3.408771E-9
1.558156E+3,	3.542314E-9
1.558160E+3,	3.666049E-9
1.558164E+3,	3.719084E-9
1.558168E+3,	3.671777E-9
1.558172E+3,	3.566992E-9
1.558176E+3,	3.362478E-9
1.558180E+3,	3.167491E-9
1.558184E+3,	2.872375E-9
1.558188E+3,	2.476920E-9
1.558192E+3,	2.130844E-9
1.558196E+3,	1.789643E-9
1.558200E+3,	1.367476E-9
1.558204E+3,	1.046953E-9
1.558208E+3,	832.065536E-12
1.558212E+3,	641.054360E-12
1.558216E+3,	498.325056E-12
1.558220E+3,	498.990690E-12
1.558224E+3,	596.864755E-12
1.558228E+3,	883.844178E-12
1.558232E+3,	1.250155E-9
1.558236E+3,	1.658811E-9
1.558240E+3,	2.243350E-9
1.558244E+3,	3.012675E-9
1.558248E+3,	3.750254E-9
1.558252E+3,	4.418056E-9
1.558256E+3,	5.253296E-9
1.558260E+3,	5.999300E-9
1.558264E+3,	6.558848E-9
1.558268E+3,	7.223050E-9
1.558272E+3,	7.666528E-9
1.558276E+3,	7.897412E-9
1.558280E+3,	8.056305E-9
1.558284E+3,	8.028887E-9
1.558288E+3,	7.823151E-9
1.558292E+3,	7.470433E-9
1.558296E+3,	6.842353E-9
1.558300E+3,	6.195722E-9
1.558304E+3,	5.521977E-9
1.558308E+3,	4.682022E-9
1.558312E+3,	3.708342E-9
1.558316E+3,	2.868834E-9
1.558320E+3,	2.209221E-9
1.558324E+3,	1.514962E-9
1.558328E+3,	1.104556E-9
1.558332E+3,	937.295993E-12
1.558336E+3,	973.170074E-12
1.558340E+3,	1.311879E-9
1.558344E+3,	1.932426E-9
1.558348E+3,	2.707378E-9
1.558352E+3,	3.932898E-9
1.558356E+3,	5.268358E-9
1.558360E+3,	6.708731E-9
1.558364E+3,	8.678292E-9
1.558368E+3,	10.515017E-9
1.558372E+3,	12.012221E-9
1.558376E+3,	13.578825E-9
1.558380E+3,	15.165789E-9
1.558384E+3,	16.343455E-9
1.558388E+3,	17.060580E-9
1.558392E+3,	17.604158E-9
1.558396E+3,	17.804148E-9
1.558400E+3,	17.674917E-9
1.558404E+3,	17.218503E-9
1.558408E+3,	16.226687E-9
1.558412E+3,	14.858210E-9
1.558416E+3,	13.446875E-9
1.558420E+3,	11.462417E-9
1.558424E+3,	9.415288E-9
1.558428E+3,	7.675200E-9
1.558432E+3,	5.947181E-9
1.558436E+3,	4.249036E-9
1.558440E+3,	2.902207E-9
1.558444E+3,	2.159310E-9
1.558448E+3,	1.730063E-9
1.558452E+3,	1.887986E-9
1.558456E+3,	2.487844E-9
1.558460E+3,	3.831292E-9
1.558464E+3,	5.539573E-9
1.558468E+3,	7.470364E-9
1.558472E+3,	9.819442E-9
1.558476E+3,	12.810519E-9
1.558480E+3,	16.003901E-9
1.558484E+3,	18.610253E-9
1.558488E+3,	21.854767E-9
1.558492E+3,	24.760782E-9
1.558496E+3,	26.857102E-9
1.558500E+3,	28.534845E-9
1.558504E+3,	29.692633E-9
1.558508E+3,	30.120010E-9
1.558512E+3,	29.839629E-9
1.558516E+3,	28.867587E-9
1.558520E+3,	27.215572E-9
1.558524E+3,	25.440251E-9
1.558528E+3,	22.739861E-9
1.558532E+3,	19.767078E-9
1.558536E+3,	16.939163E-9
1.558540E+3,	14.016535E-9
1.558544E+3,	10.647426E-9
1.558548E+3,	7.709600E-9
1.558552E+3,	5.790551E-9
1.558556E+3,	4.091028E-9
1.558560E+3,	3.199941E-9
1.558564E+3,	3.267511E-9
1.558568E+3,	4.034914E-9
1.558572E+3,	6.034833E-9
1.558576E+3,	8.922842E-9
1.558580E+3,	11.615797E-9
1.558584E+3,	15.796615E-9
1.558588E+3,	20.585815E-9
1.558592E+3,	24.654695E-9
1.558596E+3,	29.095805E-9
1.558600E+3,	34.340187E-9
1.558604E+3,	38.734482E-9
1.558608E+3,	41.801043E-9
1.558612E+3,	45.229536E-9
1.558616E+3,	47.546098E-9
1.558620E+3,	48.606661E-9
1.558624E+3,	48.753967E-9
1.558628E+3,	47.518311E-9
1.558632E+3,	45.634248E-9
1.558636E+3,	42.972695E-9
1.558640E+3,	38.690262E-9
1.558644E+3,	34.273567E-9
1.558648E+3,	30.554210E-9
1.558652E+3,	25.222390E-9
1.558656E+3,	20.100696E-9
1.558660E+3,	16.378490E-9
1.558664E+3,	12.800875E-9
1.558668E+3,	9.012073E-9
1.558672E+3,	6.494373E-9
1.558676E+3,	5.468572E-9
1.558680E+3,	5.478486E-9
1.558684E+3,	6.797406E-9
1.558688E+3,	8.943246E-9
1.558692E+3,	12.072141E-9
1.558696E+3,	17.217466E-9
1.558700E+3,	22.924840E-9
1.558704E+3,	27.756049E-9
1.558708E+3,	34.931146E-9
1.558712E+3,	41.875030E-9
1.558716E+3,	47.121139E-9
1.558720E+3,	54.075822E-9
1.558724E+3,	59.378380E-9
1.558728E+3,	62.515728E-9
1.558732E+3,	64.958810E-9
1.558736E+3,	66.626492E-9
1.558740E+3,	66.702022E-9
1.558744E+3,	65.624196E-9
1.558748E+3,	62.350907E-9
1.558752E+3,	58.110425E-9
1.558756E+3,	54.083503E-9
1.558760E+3,	48.871206E-9
1.558764E+3,	41.460333E-9
1.558768E+3,	34.971000E-9
1.558772E+3,	29.374181E-9
1.558776E+3,	22.035133E-9
1.558780E+3,	16.255323E-9
1.558784E+3,	12.388431E-9
1.558788E+3,	8.979499E-9
1.558792E+3,	6.807270E-9
1.558796E+3,	6.657271E-9
1.558800E+3,	8.143884E-9
1.558804E+3,	12.296404E-9
1.558808E+3,	17.887556E-9
1.558812E+3,	23.654702E-9
1.558816E+3,	32.736722E-9
1.558820E+3,	41.821885E-9
1.558824E+3,	48.595276E-9
1.558828E+3,	57.688814E-9
1.558832E+3,	68.160592E-9
1.558836E+3,	76.585800E-9
1.558840E+3,	82.822976E-9
1.558844E+3,	89.211159E-9
1.558848E+3,	92.702845E-9
1.558852E+3,	94.094275E-9
1.558856E+3,	93.812209E-9
1.558860E+3,	90.750036E-9
1.558864E+3,	86.118373E-9
1.558868E+3,	80.504972E-9
1.558872E+3,	71.249329E-9
1.558876E+3,	62.260603E-9
1.558880E+3,	54.524804E-9
1.558884E+3,	44.789935E-9
1.558888E+3,	34.408938E-9
1.558892E+3,	25.689037E-9
1.558896E+3,	19.255563E-9
1.558900E+3,	12.321412E-9
1.558904E+3,	8.299489E-9
1.558908E+3,	6.998241E-9
1.558912E+3,	8.073034E-9
1.558916E+3,	11.423741E-9
1.558920E+3,	16.002369E-9
1.558924E+3,	23.741994E-9
1.558928E+3,	35.041846E-9
1.558932E+3,	46.672777E-9
1.558936E+3,	57.269007E-9
1.558940E+3,	71.498281E-9
1.558944E+3,	83.147811E-9
1.558948E+3,	91.694691E-9
1.558952E+3,	100.775679E-9
1.558956E+3,	108.655350E-9
1.558960E+3,	113.629713E-9
1.558964E+3,	116.316930E-9
1.558968E+3,	116.746800E-9
1.558972E+3,	114.204256E-9
1.558976E+3,	109.343114E-9
1.558980E+3,	101.915287E-9
1.558984E+3,	91.007213E-9
1.558988E+3,	79.118831E-9
1.558992E+3,	67.608605E-9
1.558996E+3,	53.334294E-9
1.559000E+3,	41.505724E-9
1.559004E+3,	31.690630E-9
1.559008E+3,	20.999458E-9
1.559012E+3,	14.239965E-9
1.559016E+3,	9.984135E-9
1.559020E+3,	7.633045E-9
1.559024E+3,	8.191852E-9
1.559028E+3,	11.638563E-9
1.559032E+3,	16.782707E-9
1.559036E+3,	26.144171E-9
1.559040E+3,	36.723951E-9
1.559044E+3,	47.647542E-9
1.559048E+3,	62.429418E-9
1.559052E+3,	75.659747E-9
1.559056E+3,	87.836774E-9
1.559060E+3,	100.379704E-9
1.559064E+3,	111.701187E-9
1.559068E+3,	120.341097E-9
1.559072E+3,	125.316003E-9
1.559076E+3,	128.464221E-9
1.559080E+3,	128.631778E-9
1.559084E+3,	126.585507E-9
1.559088E+3,	120.881725E-9
1.559092E+3,	113.750137E-9
1.559096E+3,	106.174363E-9
1.559100E+3,	95.153302E-9
1.559104E+3,	81.156841E-9
1.559108E+3,	67.504661E-9
1.559112E+3,	55.560943E-9
1.559116E+3,	42.209765E-9
1.559120E+3,	31.106799E-9
1.559124E+3,	22.921490E-9
1.559128E+3,	15.331686E-9
1.559132E+3,	11.170351E-9
1.559136E+3,	9.845254E-9
1.559140E+3,	10.561544E-9
1.559144E+3,	14.270534E-9
1.559148E+3,	20.374810E-9
1.559152E+3,	27.933227E-9
1.559156E+3,	38.832072E-9
1.559160E+3,	50.926756E-9
1.559164E+3,	61.573139E-9
1.559168E+3,	75.183538E-9
1.559172E+3,	86.929745E-9
1.559176E+3,	96.521057E-9
1.559180E+3,	107.010992E-9
1.559184E+3,	115.943556E-9
1.559188E+3,	122.551021E-9
1.559192E+3,	126.257064E-9
1.559196E+3,	127.467827E-9
1.559200E+3,	125.645885E-9
1.559204E+3,	121.674964E-9
1.559208E+3,	114.460136E-9
1.559212E+3,	105.892865E-9
1.559216E+3,	97.425643E-9
1.559220E+3,	86.257076E-9
1.559224E+3,	72.899578E-9
1.559228E+3,	60.546838E-9
1.559232E+3,	48.950469E-9
1.559236E+3,	36.391776E-9
1.559240E+3,	25.542287E-9
1.559244E+3,	18.219137E-9
1.559248E+3,	11.640712E-9
1.559252E+3,	8.190406E-9
1.559256E+3,	7.505209E-9
1.559260E+3,	8.893263E-9
1.559264E+3,	13.347554E-9
1.559268E+3,	19.595459E-9
1.559272E+3,	27.556917E-9
1.559276E+3,	39.523060E-9
1.559280E+3,	51.382322E-9
1.559284E+3,	63.331354E-9
1.559288E+3,	78.481298E-9
1.559292E+3,	90.531960E-9
1.559296E+3,	100.066335E-9
1.559300E+3,	109.513066E-9
1.559304E+3,	118.106388E-9
1.559308E+3,	123.859628E-9
1.559312E+3,	126.289859E-9
1.559316E+3,	125.733710E-9
1.559320E+3,	122.380127E-9
1.559324E+3,	117.309848E-9
1.559328E+3,	107.961012E-9
1.559332E+3,	97.530095E-9
1.559336E+3,	87.691293E-9
1.559340E+3,	75.431222E-9
1.559344E+3,	61.187381E-9
1.559348E+3,	48.193945E-9
1.559352E+3,	37.354880E-9
1.559356E+3,	25.632803E-9
1.559360E+3,	16.931205E-9
1.559364E+3,	11.590834E-9
1.559368E+3,	8.205579E-9
1.559372E+3,	8.465935E-9
1.559376E+3,	11.222753E-9
1.559380E+3,	16.609966E-9
1.559384E+3,	26.180641E-9
1.559388E+3,	36.502598E-9
1.559392E+3,	46.817190E-9
1.559396E+3,	62.220437E-9
1.559400E+3,	75.834084E-9
1.559404E+3,	88.259972E-9
1.559408E+3,	104.139573E-9
1.559412E+3,	115.433287E-9
1.559416E+3,	123.144339E-9
1.559420E+3,	130.047812E-9
1.559424E+3,	133.914833E-9
1.559428E+3,	133.938973E-9
1.559432E+3,	131.251796E-9
1.559436E+3,	124.685723E-9
1.559440E+3,	116.593042E-9
1.559444E+3,	107.476959E-9
1.559448E+3,	93.496144E-9
1.559452E+3,	80.383472E-9
1.559456E+3,	68.823015E-9
1.559460E+3,	55.174596E-9
1.559464E+3,	40.658890E-9
1.559468E+3,	28.662347E-9
1.559472E+3,	19.989471E-9
1.559476E+3,	12.172133E-9
1.559480E+3,	8.195221E-9
1.559484E+3,	7.528583E-9
1.559488E+3,	10.621322E-9
1.559492E+3,	16.528857E-9
1.559496E+3,	23.705207E-9
1.559500E+3,	34.078491E-9
1.559504E+3,	47.873149E-9
1.559508E+3,	60.706079E-9
1.559512E+3,	72.957379E-9
1.559516E+3,	88.324260E-9
1.559520E+3,	100.662984E-9
1.559524E+3,	110.332751E-9
1.559528E+3,	121.843979E-9
1.559532E+3,	129.170606E-9
1.559536E+3,	132.935097E-9
1.559540E+3,	134.494554E-9
1.559544E+3,	131.849779E-9
1.559548E+3,	126.116350E-9
1.559552E+3,	118.500824E-9
1.559556E+3,	106.324601E-9
1.559560E+3,	93.749329E-9
1.559564E+3,	82.262774E-9
1.559568E+3,	66.859668E-9
1.559572E+3,	54.090341E-9
1.559576E+3,	43.586984E-9
1.559580E+3,	32.006723E-9
1.559584E+3,	21.404094E-9
1.559588E+3,	14.018956E-9
1.559592E+3,	9.452018E-9
1.559596E+3,	6.977538E-9
1.559600E+3,	7.701118E-9
1.559604E+3,	10.665528E-9
1.559608E+3,	18.078045E-9
1.559612E+3,	26.841274E-9
1.559616E+3,	35.188724E-9
1.559620E+3,	46.671310E-9
1.559624E+3,	61.114360E-9
1.559628E+3,	73.150553E-9
1.559632E+3,	82.936327E-9
1.559636E+3,	94.656511E-9
1.559640E+3,	102.792208E-9
1.559644E+3,	108.191162E-9
1.559648E+3,	113.530307E-9
1.559652E+3,	116.113735E-9
1.559656E+3,	116.356485E-9
1.559660E+3,	114.386485E-9
1.559664E+3,	108.725722E-9
1.559668E+3,	101.106195E-9
1.559672E+3,	92.349930E-9
1.559676E+3,	78.867040E-9
1.559680E+3,	67.101374E-9
1.559684E+3,	57.153443E-9
1.559688E+3,	43.349608E-9
1.559692E+3,	33.251883E-9
1.559696E+3,	25.585049E-9
1.559700E+3,	18.021831E-9
1.559704E+3,	11.665630E-9
1.559708E+3,	8.019011E-9
1.559712E+3,	6.800195E-9
1.559716E+3,	8.094341E-9
1.559720E+3,	11.495335E-9
1.559724E+3,	16.130744E-9
1.559728E+3,	24.878936E-9
1.559732E+3,	33.775285E-9
1.559736E+3,	41.839863E-9
1.559740E+3,	52.197887E-9
1.559744E+3,	64.801992E-9
1.559748E+3,	75.292584E-9
1.559752E+3,	83.216173E-9
1.559756E+3,	92.660924E-9
1.559760E+3,	98.730420E-9
1.559764E+3,	102.137565E-9
1.559768E+3,	104.266881E-9
1.559772E+3,	104.288533E-9
1.559776E+3,	102.790464E-9
1.559780E+3,	99.076930E-9
1.559784E+3,	91.843359E-9
1.559788E+3,	83.393067E-9
1.559792E+3,	75.007357E-9
1.559796E+3,	63.015604E-9
1.559800E+3,	51.775703E-9
1.559804E+3,	42.612708E-9
1.559808E+3,	30.759344E-9
1.559812E+3,	22.074486E-9
1.559816E+3,	16.597364E-9
1.559820E+3,	11.101447E-9
1.559824E+3,	7.098523E-9
1.559828E+3,	5.750171E-9
1.559832E+3,	6.574863E-9
1.559836E+3,	10.489544E-9
1.559840E+3,	15.983918E-9
1.559844E+3,	22.223258E-9
1.559848E+3,	33.335873E-9
1.559852E+3,	43.916483E-9
1.559856E+3,	52.219999E-9
1.559860E+3,	62.713271E-9
1.559864E+3,	75.184158E-9
1.559868E+3,	85.467830E-9
1.559872E+3,	93.455234E-9
1.559876E+3,	102.227202E-9
1.559880E+3,	107.677462E-9
1.559884E+3,	109.997076E-9
1.559888E+3,	110.529291E-9
1.559892E+3,	108.541834E-9
1.559896E+3,	104.834209E-9
1.559900E+3,	98.513179E-9
1.559904E+3,	89.031271E-9
1.559908E+3,	79.685481E-9
1.559912E+3,	70.008305E-9
1.559916E+3,	56.944272E-9
1.559920E+3,	45.857444E-9
1.559924E+3,	36.757489E-9
1.559928E+3,	25.393154E-9
1.559932E+3,	17.147995E-9
1.559936E+3,	12.411968E-9
1.559940E+3,	8.272528E-9
1.559944E+3,	6.212940E-9
1.559948E+3,	6.800937E-9
1.559952E+3,	9.395059E-9
1.559956E+3,	15.643234E-9
1.559960E+3,	22.828416E-9
1.559964E+3,	30.852269E-9
1.559968E+3,	43.261747E-9
1.559972E+3,	55.244020E-9
1.559976E+3,	65.095718E-9
1.559980E+3,	76.353662E-9
1.559984E+3,	88.589531E-9
1.559988E+3,	97.435992E-9
1.559992E+3,	103.670270E-9
1.559996E+3,	109.913601E-9
1.560000E+3,	113.037474E-9
1.560004E+3,	113.728618E-9
1.560008E+3,	111.709069E-9
1.560012E+3,	107.258236E-9
1.560016E+3,	101.806914E-9
1.560020E+3,	91.273958E-9
1.560024E+3,	80.656929E-9
1.560028E+3,	71.624421E-9
1.560032E+3,	60.648274E-9
1.560036E+3,	47.140695E-9
1.560040E+3,	35.850126E-9
1.560044E+3,	27.591201E-9
1.560048E+3,	17.533158E-9
1.560052E+3,	10.854057E-9
1.560056E+3,	7.942263E-9
1.560060E+3,	6.441392E-9
1.560064E+3,	7.807765E-9
1.560068E+3,	10.559307E-9
1.560072E+3,	16.828096E-9
1.560076E+3,	25.403465E-9
1.560080E+3,	33.179029E-9
1.560084E+3,	43.034501E-9
1.560088E+3,	56.364766E-9
1.560092E+3,	68.470278E-9
1.560096E+3,	77.723118E-9
1.560100E+3,	90.062402E-9
1.560104E+3,	99.105868E-9
1.560108E+3,	104.380300E-9
1.560112E+3,	108.809491E-9
1.560116E+3,	110.428119E-9
1.560120E+3,	109.757199E-9
1.560124E+3,	106.425856E-9
1.560128E+3,	101.041231E-9
1.560132E+3,	95.101963E-9
1.560136E+3,	87.562168E-9
1.560140E+3,	75.975142E-9
1.560144E+3,	63.750479E-9
1.560148E+3,	54.158422E-9
1.560152E+3,	41.715254E-9
1.560156E+3,	30.391780E-9
1.560160E+3,	22.617034E-9
1.560164E+3,	14.614716E-9
1.560168E+3,	8.967733E-9
1.560172E+3,	6.435675E-9
1.560176E+3,	5.809868E-9
1.560180E+3,	7.777424E-9
1.560184E+3,	11.121365E-9
1.560188E+3,	16.340977E-9
1.560192E+3,	24.866037E-9
1.560196E+3,	33.786017E-9
1.560200E+3,	41.582411E-9
1.560204E+3,	52.161522E-9
1.560208E+3,	62.786423E-9
1.560212E+3,	70.768309E-9
1.560216E+3,	80.036680E-9
1.560220E+3,	88.005629E-9
1.560224E+3,	92.908327E-9
1.560228E+3,	96.804237E-9
1.560232E+3,	98.091268E-9
1.560236E+3,	97.075621E-9
1.560240E+3,	94.409078E-9
1.560244E+3,	89.533356E-9
1.560248E+3,	82.833881E-9
1.560252E+3,	76.041082E-9
1.560256E+3,	66.902601E-9
1.560260E+3,	56.931110E-9
1.560264E+3,	48.331481E-9
1.560268E+3,	38.024249E-9
1.560272E+3,	28.566802E-9
1.560276E+3,	21.092125E-9
1.560280E+3,	13.465162E-9
1.560284E+3,	8.441243E-9
1.560288E+3,	5.880673E-9
1.560292E+3,	4.692547E-9
1.560296E+3,	5.812792E-9
1.560300E+3,	8.964960E-9
1.560304E+3,	13.017807E-9
1.560308E+3,	19.771030E-9
1.560312E+3,	27.199579E-9
1.560316E+3,	34.378620E-9
1.560320E+3,	43.617372E-9
1.560324E+3,	51.847417E-9
1.560328E+3,	58.832126E-9
1.560332E+3,	66.780085E-9
1.560336E+3,	73.003035E-9
1.560340E+3,	77.706284E-9
1.560344E+3,	81.608517E-9
1.560348E+3,	83.597357E-9
1.560352E+3,	83.274546E-9
1.560356E+3,	81.220542E-9
1.560360E+3,	76.229155E-9
1.560364E+3,	70.442186E-9
1.560368E+3,	64.101620E-9
1.560372E+3,	54.907322E-9
1.560376E+3,	46.788717E-9
1.560380E+3,	39.972168E-9
1.560384E+3,	30.394225E-9
1.560388E+3,	22.839394E-9
1.560392E+3,	17.273782E-9
1.560396E+3,	11.766234E-9
1.560400E+3,	7.141462E-9
1.560404E+3,	5.026038E-9
1.560408E+3,	4.826506E-9
1.560412E+3,	7.015799E-9
1.560416E+3,	10.566574E-9
1.560420E+3,	15.361597E-9
1.560424E+3,	23.522824E-9
1.560428E+3,	31.911574E-9
1.560432E+3,	39.490631E-9
1.560436E+3,	50.604055E-9
1.560440E+3,	59.981193E-9
1.560444E+3,	66.714212E-9
1.560448E+3,	74.774212E-9
1.560452E+3,	81.993506E-9
1.560456E+3,	87.184718E-9
1.560460E+3,	90.346016E-9
1.560464E+3,	92.081432E-9
1.560468E+3,	91.589997E-9
1.560472E+3,	89.547366E-9
1.560476E+3,	83.970136E-9
1.560480E+3,	77.279216E-9
1.560484E+3,	70.920659E-9
1.560488E+3,	60.340575E-9
1.560492E+3,	50.460410E-9
1.560496E+3,	43.316897E-9
1.560500E+3,	34.642468E-9
1.560504E+3,	25.107554E-9
1.560508E+3,	17.969448E-9
1.560512E+3,	12.880683E-9
1.560516E+3,	7.799323E-9
1.560520E+3,	5.371521E-9
1.560524E+3,	5.126702E-9
1.560528E+3,	7.392560E-9
1.560532E+3,	11.520859E-9
1.560536E+3,	16.029672E-9
1.560540E+3,	24.218982E-9
1.560544E+3,	33.749218E-9
1.560548E+3,	41.086953E-9
1.560552E+3,	50.051892E-9
1.560556E+3,	62.091934E-9
1.560560E+3,	71.149806E-9
1.560564E+3,	77.566583E-9
1.560568E+3,	85.414457E-9
1.560572E+3,	90.530744E-9
1.560576E+3,	92.989149E-9
1.560580E+3,	94.079233E-9
1.560584E+3,	92.922443E-9
1.560588E+3,	90.355484E-9
1.560592E+3,	85.182691E-9
1.560596E+3,	78.335990E-9
1.560600E+3,	71.370269E-9
1.560604E+3,	61.245783E-9
1.560608E+3,	50.710170E-9
1.560612E+3,	42.193367E-9
1.560616E+3,	33.799176E-9
1.560620E+3,	24.183658E-9
1.560624E+3,	16.895336E-9
1.560628E+3,	12.247535E-9
1.560632E+3,	7.888895E-9
1.560636E+3,	5.523321E-9
1.560640E+3,	5.272361E-9
1.560644E+3,	7.091001E-9
1.560648E+3,	11.046319E-9
1.560652E+3,	15.741609E-9
1.560656E+3,	23.143911E-9
1.560660E+3,	31.503339E-9
1.560664E+3,	39.527086E-9
1.560668E+3,	47.685202E-9
1.560672E+3,	57.416816E-9
1.560676E+3,	66.366524E-9
1.560680E+3,	72.595603E-9
1.560684E+3,	79.162684E-9
1.560688E+3,	84.058728E-9
1.560692E+3,	86.845073E-9
1.560696E+3,	88.043069E-9
1.560700E+3,	87.145676E-9
1.560704E+3,	84.647228E-9
1.560708E+3,	79.595584E-9
1.560712E+3,	73.885353E-9
1.560716E+3,	67.552909E-9
1.560720E+3,	59.858641E-9
1.560724E+3,	50.442896E-9
1.560728E+3,	40.818050E-9
1.560732E+3,	33.238363E-9
1.560736E+3,	24.575880E-9
1.560740E+3,	16.946582E-9
1.560744E+3,	12.002997E-9
1.560748E+3,	7.447150E-9
1.560752E+3,	5.027856E-9
1.560756E+3,	4.383650E-9
1.560760E+3,	5.553045E-9
1.560764E+3,	8.275187E-9
1.560768E+3,	12.079198E-9
1.560772E+3,	17.732913E-9
1.560776E+3,	25.444406E-9
1.560780E+3,	33.666212E-9
1.560784E+3,	41.106889E-9
1.560788E+3,	50.245452E-9
1.560792E+3,	58.020290E-9
1.560796E+3,	64.560666E-9
1.560800E+3,	71.290513E-9
1.560804E+3,	76.296052E-9
1.560808E+3,	79.335892E-9
1.560812E+3,	81.636670E-9
1.560816E+3,	81.854044E-9
1.560820E+3,	80.458324E-9
1.560824E+3,	77.411263E-9
1.560828E+3,	71.955221E-9
1.560832E+3,	65.478903E-9
1.560836E+3,	58.946664E-9
1.560840E+3,	49.654120E-9
1.560844E+3,	41.238485E-9
1.560848E+3,	34.016910E-9
1.560852E+3,	25.137699E-9
1.560856E+3,	18.104490E-9
1.560860E+3,	12.867541E-9
1.560864E+3,	7.798017E-9
1.560868E+3,	5.074514E-9
1.560872E+3,	4.270663E-9
1.560876E+3,	4.750867E-9
1.560880E+3,	7.337243E-9
1.560884E+3,	11.157581E-9
1.560888E+3,	15.838371E-9
1.560892E+3,	23.757854E-9
1.560896E+3,	31.294151E-9
1.560900E+3,	38.147315E-9
1.560904E+3,	48.335718E-9
1.560908E+3,	56.785471E-9
1.560912E+3,	62.700244E-9
1.560916E+3,	70.172809E-9
1.560920E+3,	75.712662E-9
1.560924E+3,	78.649746E-9
1.560928E+3,	80.750105E-9
1.560932E+3,	81.563461E-9
1.560936E+3,	80.606659E-9
1.560940E+3,	78.054900E-9
1.560944E+3,	73.319993E-9
1.560948E+3,	67.431004E-9
1.560952E+3,	61.912504E-9
1.560956E+3,	53.218066E-9
1.560960E+3,	44.897046E-9
1.560964E+3,	38.243808E-9
1.560968E+3,	28.933718E-9
1.560972E+3,	21.384422E-9
1.560976E+3,	16.099748E-9
1.560980E+3,	10.901864E-9
1.560984E+3,	6.476256E-9
1.560988E+3,	4.486750E-9
1.560992E+3,	4.359306E-9
1.560996E+3,	6.528433E-9
1.561000E+3,	10.056289E-9
1.561004E+3,	14.425101E-9
1.561008E+3,	22.066171E-9
1.561012E+3,	29.210740E-9
1.561016E+3,	35.361179E-9
1.561020E+3,	44.471674E-9
1.561024E+3,	52.837161E-9
1.561028E+3,	58.919968E-9
1.561032E+3,	66.551599E-9
1.561036E+3,	72.622295E-9
1.561040E+3,	76.238954E-9
1.561044E+3,	79.036037E-9
1.561048E+3,	80.207953E-9
1.561052E+3,	79.177197E-9
1.561056E+3,	76.626964E-9
1.561060E+3,	71.442983E-9
1.561064E+3,	65.551536E-9
1.561068E+3,	59.705663E-9
1.561072E+3,	51.103891E-9
1.561076E+3,	42.488767E-9
1.561080E+3,	36.242216E-9
1.561084E+3,	27.377891E-9
1.561088E+3,	19.674785E-9
1.561092E+3,	14.816491E-9
1.561096E+3,	9.748607E-9
1.561100E+3,	5.915843E-9
1.561104E+3,	4.358890E-9
1.561108E+3,	4.373602E-9
1.561112E+3,	6.392756E-9
1.561116E+3,	9.554432E-9
1.561120E+3,	14.114534E-9
1.561124E+3,	21.093606E-9
1.561128E+3,	28.763943E-9
1.561132E+3,	34.933924E-9
1.561136E+3,	43.312518E-9
1.561140E+3,	51.164416E-9
1.561144E+3,	56.646349E-9
1.561148E+3,	63.086747E-9
1.561152E+3,	67.880155E-9
1.561156E+3,	70.887047E-9
1.561160E+3,	73.245101E-9
1.561164E+3,	73.728844E-9
1.561168E+3,	72.550152E-9
1.561172E+3,	69.189029E-9
1.561176E+3,	64.325405E-9
1.561180E+3,	58.817815E-9
1.561184E+3,	51.098827E-9
1.561188E+3,	43.921254E-9
1.561192E+3,	37.394899E-9
1.561196E+3,	30.007087E-9
1.561200E+3,	22.603288E-9
1.561204E+3,	16.284360E-9
1.561208E+3,	11.387089E-9
1.561212E+3,	7.175656E-9
1.561216E+3,	4.748016E-9
1.561220E+3,	3.737578E-9
1.561224E+3,	4.299125E-9
1.561228E+3,	6.339123E-9
1.561232E+3,	9.418355E-9
1.561236E+3,	15.097177E-9
1.561240E+3,	20.906919E-9
1.561244E+3,	26.350808E-9
1.561248E+3,	34.102095E-9
1.561252E+3,	40.807282E-9
1.561256E+3,	46.068985E-9
1.561260E+3,	52.189708E-9
1.561264E+3,	56.818780E-9
1.561268E+3,	59.321503E-9
1.561272E+3,	61.314213E-9
1.561276E+3,	62.158160E-9
1.561280E+3,	61.772583E-9
1.561284E+3,	60.440736E-9
1.561288E+3,	57.052108E-9
1.561292E+3,	52.975080E-9
1.561296E+3,	48.590755E-9
1.561300E+3,	41.674426E-9
1.561304E+3,	34.817101E-9
1.561308E+3,	29.384483E-9
1.561312E+3,	22.266691E-9
1.561316E+3,	16.176423E-9
1.561320E+3,	12.229978E-9
1.561324E+3,	7.986876E-9
1.561328E+3,	4.967444E-9
1.561332E+3,	3.609878E-9
1.561336E+3,	3.167220E-9
1.561340E+3,	3.920578E-9
1.561344E+3,	5.503438E-9
1.561348E+3,	7.963946E-9
1.561352E+3,	12.177559E-9
1.561356E+3,	16.868297E-9
1.561360E+3,	20.901051E-9
1.561364E+3,	26.615723E-9
1.561368E+3,	31.900685E-9
1.561372E+3,	35.703012E-9
1.561376E+3,	40.029702E-9
1.561380E+3,	43.337203E-9
1.561384E+3,	45.212588E-9
1.561388E+3,	46.550074E-9
1.561392E+3,	46.866043E-9
1.561396E+3,	46.282031E-9
1.561400E+3,	44.603837E-9
1.561404E+3,	42.043037E-9
1.561408E+3,	39.083937E-9
1.561412E+3,	35.012080E-9
1.561416E+3,	30.800093E-9
1.561420E+3,	26.389352E-9
1.561424E+3,	21.777012E-9
1.561428E+3,	16.931604E-9
1.561432E+3,	12.478962E-9
1.561436E+3,	9.383221E-9
1.561440E+3,	6.328689E-9
1.561444E+3,	4.281601E-9
1.561448E+3,	3.217792E-9
1.561452E+3,	2.836610E-9
1.561456E+3,	3.249413E-9
1.561460E+3,	4.278926E-9
1.561464E+3,	6.414049E-9
1.561468E+3,	8.900792E-9
1.561472E+3,	11.544990E-9
1.561476E+3,	15.465438E-9
1.561480E+3,	18.825829E-9
1.561484E+3,	21.805752E-9
1.561488E+3,	25.621231E-9
1.561492E+3,	28.506253E-9
1.561496E+3,	30.411654E-9
1.561500E+3,	32.531990E-9
1.561504E+3,	33.780230E-9
1.561508E+3,	34.163145E-9
1.561512E+3,	34.049119E-9
1.561516E+3,	32.915905E-9
1.561520E+3,	31.338063E-9
1.561524E+3,	29.436369E-9
1.561528E+3,	26.529331E-9
1.561532E+3,	23.582598E-9
1.561536E+3,	21.116369E-9
1.561540E+3,	17.194109E-9
1.561544E+3,	13.619359E-9
1.561548E+3,	11.106068E-9
1.561552E+3,	7.834937E-9
1.561556E+3,	5.266270E-9
1.561560E+3,	3.856306E-9
1.561564E+3,	2.554010E-9
1.561568E+3,	1.940011E-9
1.561572E+3,	1.977592E-9
1.561576E+3,	2.649637E-9
1.561580E+3,	3.865864E-9
1.561584E+3,	5.357196E-9
1.561588E+3,	7.146568E-9
1.561592E+3,	9.725047E-9
1.561596E+3,	12.290614E-9
1.561600E+3,	14.380904E-9
1.561604E+3,	17.128337E-9
1.561608E+3,	19.532115E-9
1.561612E+3,	21.086698E-9
1.561616E+3,	22.671136E-9
1.561620E+3,	23.779651E-9
1.561624E+3,	24.192164E-9
1.561628E+3,	24.062472E-9
1.561632E+3,	23.396914E-9
1.561636E+3,	22.348256E-9
1.561640E+3,	20.500830E-9
1.561644E+3,	18.564167E-9
1.561648E+3,	16.713915E-9
1.561652E+3,	14.070150E-9
1.561656E+3,	11.835030E-9
1.561660E+3,	9.764199E-9
1.561664E+3,	7.407703E-9
1.561668E+3,	5.203492E-9
1.561672E+3,	3.486993E-9
1.561676E+3,	2.384963E-9
1.561680E+3,	1.504358E-9
1.561684E+3,	1.165152E-9
1.561688E+3,	1.274737E-9
1.561692E+3,	1.865542E-9
1.561696E+3,	2.774909E-9
1.561700E+3,	3.878138E-9
1.561704E+3,	5.541719E-9
1.561708E+3,	7.145524E-9
1.561712E+3,	8.661946E-9
1.561716E+3,	10.602401E-9
1.561720E+3,	12.174960E-9
1.561724E+3,	13.374584E-9
1.561728E+3,	14.640349E-9
1.561732E+3,	15.463787E-9
1.561736E+3,	15.822463E-9
1.561740E+3,	15.942986E-9
1.561744E+3,	15.668884E-9
1.561748E+3,	15.120920E-9
1.561752E+3,	14.385472E-9
1.561756E+3,	13.065126E-9
1.561760E+3,	11.652329E-9
1.561764E+3,	10.396973E-9
1.561768E+3,	8.633661E-9
1.561772E+3,	7.054064E-9
1.561776E+3,	5.882052E-9
1.561780E+3,	4.337451E-9
1.561784E+3,	3.057584E-9
1.561788E+3,	2.213361E-9
1.561792E+3,	1.418045E-9
1.561796E+3,	952.889827E-12
1.561800E+3,	848.554851E-12
1.561804E+3,	1.001946E-9
1.561808E+3,	1.406245E-9
1.561812E+3,	1.836135E-9
1.561816E+3,	2.485258E-9
1.561820E+3,	3.407865E-9
1.561824E+3,	4.303986E-9
1.561828E+3,	5.038973E-9
1.561832E+3,	6.023606E-9
1.561836E+3,	6.868525E-9
1.561840E+3,	7.378546E-9
1.561844E+3,	7.878116E-9
1.561848E+3,	8.182260E-9
1.561852E+3,	8.262919E-9
1.561856E+3,	8.143824E-9
1.561860E+3,	7.832189E-9
1.561864E+3,	7.455839E-9
1.561868E+3,	6.834999E-9
1.561872E+3,	6.155309E-9
1.561876E+3,	5.526734E-9
1.561880E+3,	4.648267E-9
1.561884E+3,	3.820501E-9
1.561888E+3,	3.158086E-9
1.561892E+3,	2.484274E-9
1.561896E+3,	1.784253E-9
1.561900E+3,	1.229471E-9
1.561904E+3,	890.204101E-12
1.561908E+3,	602.233949E-12
1.561912E+3,	486.016067E-12
1.561916E+3,	502.270470E-12
1.561920E+3,	660.292910E-12
1.561924E+3,	942.525534E-12
1.561928E+3,	1.243433E-9
1.561932E+3,	1.672229E-9
1.561936E+3,	2.107436E-9
1.561940E+3,	2.513152E-9
1.561944E+3,	2.942345E-9
1.561948E+3,	3.309055E-9
1.561952E+3,	3.577608E-9
1.561956E+3,	3.880269E-9
1.561960E+3,	4.050001E-9
1.561964E+3,	4.105956E-9
1.561968E+3,	4.105762E-9
1.561972E+3,	4.003584E-9
1.561976E+3,	3.817943E-9
1.561980E+3,	3.602577E-9
1.561984E+3,	3.211491E-9
1.561988E+3,	2.846608E-9
1.561992E+3,	2.542989E-9
1.561996E+3,	2.082318E-9
1.562000E+3,	1.700777E-9
1.562004E+3,	1.408294E-9
1.562008E+3,	1.024938E-9
1.562012E+3,	777.357851E-12
1.562016E+3,	566.857131E-12
1.562020E+3,	403.341967E-12
1.562024E+3,	305.727953E-12
1.562028E+3,	277.640815E-12
1.562032E+3,	297.175549E-12
1.562036E+3,	352.156004E-12
1.562040E+3,	493.856032E-12
1.562044E+3,	684.375340E-12
1.562048E+3,	895.723992E-12
1.562052E+3,	1.038833E-9
1.562056E+3,	1.251929E-9
1.562060E+3,	1.454190E-9
1.562064E+3,	1.610857E-9
1.562068E+3,	1.728638E-9
1.562072E+3,	1.859244E-9
1.562076E+3,	1.891339E-9
1.562080E+3,	1.932304E-9
1.562084E+3,	1.915483E-9
1.562088E+3,	1.887738E-9
1.562092E+3,	1.768591E-9
1.562096E+3,	1.653193E-9
1.562100E+3,	1.496984E-9
1.562104E+3,	1.268499E-9
1.562108E+3,	1.080709E-9
1.562112E+3,	924.453510E-12
1.562116E+3,	731.873354E-12
1.562120E+3,	567.572507E-12
1.562124E+3,	435.411989E-12
1.562128E+3,	293.144529E-12
1.562132E+3,	219.037067E-12
1.562136E+3,	151.944550E-12
1.562140E+3,	131.138853E-12
1.562144E+3,	111.753252E-12
1.562148E+3,	146.170640E-12
1.562152E+3,	181.070529E-12
1.562156E+3,	264.735153E-12
1.562160E+3,	330.356902E-12
1.562164E+3,	419.523993E-12
1.562168E+3,	538.841354E-12
1.562172E+3,	642.747670E-12
1.562176E+3,	700.149911E-12
1.562180E+3,	789.647023E-12
1.562184E+3,	838.612684E-12
1.562188E+3,	885.960085E-12
1.562192E+3,	884.778971E-12
1.562196E+3,	889.944721E-12
1.562200E+3,	880.198082E-12
1.562204E+3,	829.873565E-12
1.562208E+3,	772.628388E-12
1.562212E+3,	716.120263E-12
1.562216E+3,	627.074325E-12
1.562220E+3,	542.503948E-12
1.562224E+3,	454.675176E-12
1.562228E+3,	347.958664E-12
1.562232E+3,	268.979561E-12
1.562236E+3,	188.499882E-12
1.562240E+3,	133.904242E-12
1.562244E+3,	74.144093E-12
1.562248E+3,	53.922074E-12
1.562252E+3,	36.696902E-12
1.562256E+3,	34.329420E-12
1.562260E+3,	42.995622E-12
1.562264E+3,	63.108263E-12
1.562268E+3,	88.250211E-12
1.562272E+3,	138.074009E-12
1.562276E+3,	149.795420E-12
1.562280E+3,	210.111997E-12
1.562284E+3,	234.818619E-12
1.562288E+3,	287.347590E-12
1.562292E+3,	334.640933E-12
1.562296E+3,	324.526216E-12
1.562300E+3,	339.626855E-12
1.562304E+3,	361.125015E-12
1.562308E+3,	351.527400E-12
1.562312E+3,	350.929555E-12
1.562316E+3,	297.712211E-12
1.562320E+3,	315.591265E-12
1.562324E+3,	271.558525E-12
1.562328E+3,	260.551077E-12
1.562332E+3,	240.192942E-12
1.562336E+3,	180.643233E-12
1.562340E+3,	141.417869E-12
1.562344E+3,	130.736102E-12
1.562348E+3,	87.448683E-12
1.562352E+3,	52.401519E-12
1.562356E+3,	42.831638E-12
1.562360E+3,	30.762183E-12
1.562364E+3,	17.654459E-12
1.562368E+3,	2.546663E-12
1.562372E+3,	17.972459E-12
1.562376E+3,	40.489334E-12
1.562380E+3,	29.354030E-12
1.562384E+3,	47.741648E-12
1.562388E+3,	58.160678E-12
1.562392E+3,	86.419201E-12
1.562396E+3,	85.596990E-12
1.562400E+3,	101.163805E-12
1.562404E+3,	115.968517E-12
1.562408E+3,	140.686997E-12
1.562412E+3,	155.065925E-12
1.562416E+3,	162.079064E-12
1.562420E+3,	165.815073E-12
1.562424E+3,	150.490151E-12
1.562428E+3,	153.866251E-12
1.562432E+3,	128.196965E-12
1.562436E+3,	145.302957E-12
1.562440E+3,	119.479186E-12
1.562444E+3,	112.810785E-12
1.562448E+3,	104.326163E-12
1.562452E+3,	84.199720E-12
1.562456E+3,	63.865156E-12
1.562460E+3,	49.030453E-12
1.562464E+3,	36.644355E-12
1.562468E+3,	15.183088E-12
1.562472E+3,	17.471020E-12
1.562476E+3,	5.402815E-12
1.562480E+3,	12.473759E-12
1.562484E+3,	0.000000E+0
1.562488E+3,	15.543430E-12
1.562492E+3,	11.546963E-12
1.562496E+3,	8.628932E-12
1.562500E+3,	35.298233E-12
1.562504E+3,	34.983702E-12
1.562508E+3,	35.914151E-12
1.562512E+3,	39.235369E-12
1.562516E+3,	63.385580E-12
1.562520E+3,	72.356513E-12
1.562524E+3,	63.814427E-12
1.562528E+3,	61.135807E-12
1.562532E+3,	58.077289E-12
1.562536E+3,	72.220055E-12
1.562540E+3,	70.968453E-12
1.562544E+3,	71.835451E-12
1.562548E+3,	75.114930E-12
1.562552E+3,	64.458194E-12
1.562556E+3,	43.039175E-12
1.562560E+3,	65.856824E-12
1.562564E+3,	33.686530E-12
1.562568E+3,	45.767803E-12
1.562572E+3,	42.189316E-12
1.562576E+3,	45.572594E-12
1.562580E+3,	27.403887E-12
1.562584E+3,	6.958869E-12
1.562588E+3,	13.923493E-12
1.562592E+3,	4.893009E-12
1.562596E+3,	6.799841E-12
1.562600E+3,	10.224503E-12
