YOKOGAWA AQ6370D - S/N: 91S206859
#Date: 26/06/2023 Time: 11:50:07,	
A_WL(nm),	A_I(mW)
1.558250E+3,	4.047507E-9
1.558254E+3,	4.398149E-9
1.558258E+3,	4.551919E-9
1.558262E+3,	4.604732E-9
1.558266E+3,	4.462885E-9
1.558270E+3,	4.183369E-9
1.558274E+3,	3.861237E-9
1.558278E+3,	3.405390E-9
1.558282E+3,	2.770333E-9
1.558286E+3,	2.268860E-9
1.558290E+3,	1.856508E-9
1.558294E+3,	1.532805E-9
1.558298E+3,	1.376395E-9
1.558302E+3,	1.401417E-9
1.558306E+3,	1.628018E-9
1.558310E+3,	2.011523E-9
1.558314E+3,	2.472182E-9
1.558318E+3,	2.996822E-9
1.558322E+3,	3.672275E-9
1.558326E+3,	4.217107E-9
1.558330E+3,	4.615043E-9
1.558334E+3,	4.939562E-9
1.558338E+3,	5.109148E-9
1.558342E+3,	5.094931E-9
1.558346E+3,	4.955685E-9
1.558350E+3,	4.574701E-9
1.558354E+3,	4.096826E-9
1.558358E+3,	3.647447E-9
1.558362E+3,	2.968819E-9
1.558366E+3,	2.370948E-9
1.558370E+3,	1.898200E-9
1.558374E+3,	1.483653E-9
1.558378E+3,	1.049808E-9
1.558382E+3,	706.526769E-12
1.558386E+3,	512.750464E-12
1.558390E+3,	334.942759E-12
1.558394E+3,	283.000249E-12
1.558398E+3,	274.048917E-12
1.558402E+3,	330.584302E-12
1.558406E+3,	415.382890E-12
1.558410E+3,	438.822631E-12
1.558414E+3,	483.220924E-12
1.558418E+3,	527.001966E-12
1.558422E+3,	490.974649E-12
1.558426E+3,	476.940066E-12
1.558430E+3,	415.790166E-12
1.558434E+3,	344.459543E-12
1.558438E+3,	294.133207E-12
1.558442E+3,	223.022974E-12
1.558446E+3,	207.728218E-12
1.558450E+3,	185.484113E-12
1.558454E+3,	224.676858E-12
1.558458E+3,	274.295841E-12
1.558462E+3,	285.303305E-12
1.558466E+3,	321.230204E-12
1.558470E+3,	339.124213E-12
1.558474E+3,	342.597860E-12
1.558478E+3,	324.871898E-12
1.558482E+3,	315.881063E-12
1.558486E+3,	271.491549E-12
1.558490E+3,	304.284469E-12
1.558494E+3,	379.541540E-12
1.558498E+3,	579.452514E-12
1.558502E+3,	901.885346E-12
1.558506E+3,	1.303089E-9
1.558510E+3,	1.821546E-9
1.558514E+3,	2.658390E-9
1.558518E+3,	3.618918E-9
1.558522E+3,	4.542960E-9
1.558526E+3,	5.724368E-9
1.558530E+3,	6.743662E-9
1.558534E+3,	7.483267E-9
1.558538E+3,	8.186504E-9
1.558542E+3,	8.721363E-9
1.558546E+3,	8.908047E-9
1.558550E+3,	8.785192E-9
1.558554E+3,	8.231512E-9
1.558558E+3,	7.428936E-9
1.558562E+3,	6.588076E-9
1.558566E+3,	5.311282E-9
1.558570E+3,	4.142797E-9
1.558574E+3,	3.298594E-9
1.558578E+3,	2.672945E-9
1.558582E+3,	2.571107E-9
1.558586E+3,	3.198721E-9
1.558590E+3,	4.470359E-9
1.558594E+3,	7.256063E-9
1.558598E+3,	10.872099E-9
1.558602E+3,	14.689075E-9
1.558606E+3,	19.487162E-9
1.558610E+3,	25.776078E-9
1.558614E+3,	31.493215E-9
1.558618E+3,	36.002650E-9
1.558622E+3,	41.137969E-9
1.558626E+3,	44.462774E-9
1.558630E+3,	45.584973E-9
1.558634E+3,	45.329915E-9
1.558638E+3,	42.740973E-9
1.558642E+3,	38.601157E-9
1.558646E+3,	34.106126E-9
1.558650E+3,	27.112514E-9
1.558654E+3,	20.263106E-9
1.558658E+3,	15.084406E-9
1.558662E+3,	9.581239E-9
1.558666E+3,	6.282867E-9
1.558670E+3,	5.244207E-9
1.558674E+3,	5.881832E-9
1.558678E+3,	9.211622E-9
1.558682E+3,	14.549665E-9
1.558686E+3,	20.842075E-9
1.558690E+3,	30.764765E-9
1.558694E+3,	40.374752E-9
1.558698E+3,	48.136149E-9
1.558702E+3,	56.357162E-9
1.558706E+3,	65.934206E-9
1.558710E+3,	73.388722E-9
1.558714E+3,	77.440373E-9
1.558718E+3,	80.081972E-9
1.558722E+3,	79.993998E-9
1.558726E+3,	78.040515E-9
1.558730E+3,	74.055133E-9
1.558734E+3,	66.728185E-9
1.558738E+3,	58.503442E-9
1.558742E+3,	50.901490E-9
1.558746E+3,	40.734817E-9
1.558750E+3,	32.009952E-9
1.558754E+3,	25.769982E-9
1.558758E+3,	19.949210E-9
1.558762E+3,	18.115823E-9
1.558766E+3,	20.315138E-9
1.558770E+3,	26.853145E-9
1.558774E+3,	39.852850E-9
1.558778E+3,	56.015117E-9
1.558782E+3,	72.798229E-9
1.558786E+3,	97.834078E-9
1.558790E+3,	122.246464E-9
1.558794E+3,	141.659359E-9
1.558798E+3,	159.653814E-9
1.558802E+3,	174.912006E-9
1.558806E+3,	182.803249E-9
1.558810E+3,	183.833984E-9
1.558814E+3,	178.180208E-9
1.558818E+3,	166.580086E-9
1.558822E+3,	151.915699E-9
1.558826E+3,	133.044847E-9
1.558830E+3,	109.166267E-9
1.558834E+3,	86.141746E-9
1.558838E+3,	67.322670E-9
1.558842E+3,	44.852132E-9
1.558846E+3,	28.146375E-9
1.558850E+3,	18.583038E-9
1.558854E+3,	11.909302E-9
1.558858E+3,	10.907060E-9
1.558862E+3,	14.168019E-9
1.558866E+3,	21.148771E-9
1.558870E+3,	33.098224E-9
1.558874E+3,	46.334119E-9
1.558878E+3,	57.969326E-9
1.558882E+3,	73.426526E-9
1.558886E+3,	87.120349E-9
1.558890E+3,	97.562943E-9
1.558894E+3,	107.484340E-9
1.558898E+3,	115.329378E-9
1.558902E+3,	118.381690E-9
1.558906E+3,	117.726432E-9
1.558910E+3,	113.151779E-9
1.558914E+3,	105.607751E-9
1.558918E+3,	96.509975E-9
1.558922E+3,	84.137583E-9
1.558926E+3,	67.605073E-9
1.558930E+3,	53.243867E-9
1.558934E+3,	43.356750E-9
1.558938E+3,	34.002254E-9
1.558942E+3,	30.042490E-9
1.558946E+3,	31.715895E-9
1.558950E+3,	41.613743E-9
1.558954E+3,	58.361888E-9
1.558958E+3,	77.604475E-9
1.558962E+3,	102.294711E-9
1.558966E+3,	134.708524E-9
1.558970E+3,	166.000590E-9
1.558974E+3,	191.817218E-9
1.558978E+3,	223.712788E-9
1.558982E+3,	242.397724E-9
1.558986E+3,	251.874963E-9
1.558990E+3,	255.195914E-9
1.558994E+3,	249.366783E-9
1.558998E+3,	235.713433E-9
1.559002E+3,	217.691817E-9
1.559006E+3,	187.492745E-9
1.559010E+3,	156.465163E-9
1.559014E+3,	131.326658E-9
1.559018E+3,	96.361408E-9
1.559022E+3,	66.605255E-9
1.559026E+3,	48.285406E-9
1.559030E+3,	31.348363E-9
1.559034E+3,	18.570252E-9
1.559038E+3,	12.562328E-9
1.559042E+3,	12.550968E-9
1.559046E+3,	17.971823E-9
1.559050E+3,	27.005271E-9
1.559054E+3,	37.441993E-9
1.559058E+3,	54.983664E-9
1.559062E+3,	72.657971E-9
1.559066E+3,	86.956427E-9
1.559070E+3,	101.715590E-9
1.559074E+3,	117.682391E-9
1.559078E+3,	130.290140E-9
1.559082E+3,	137.938887E-9
1.559086E+3,	143.413965E-9
1.559090E+3,	143.502486E-9
1.559094E+3,	139.344563E-9
1.559098E+3,	128.667818E-9
1.559102E+3,	114.814145E-9
1.559106E+3,	100.360948E-9
1.559110E+3,	82.257769E-9
1.559114E+3,	60.686259E-9
1.559118E+3,	43.462600E-9
1.559122E+3,	33.749022E-9
1.559126E+3,	28.581686E-9
1.559130E+3,	31.929796E-9
1.559134E+3,	41.673305E-9
1.559138E+3,	63.058522E-9
1.559142E+3,	89.389030E-9
1.559146E+3,	114.704069E-9
1.559150E+3,	145.419563E-9
1.559154E+3,	180.129720E-9
1.559158E+3,	207.371664E-9
1.559162E+3,	226.736492E-9
1.559166E+3,	246.416713E-9
1.559170E+3,	254.033853E-9
1.559174E+3,	252.726706E-9
1.559178E+3,	244.793278E-9
1.559182E+3,	230.730595E-9
1.559186E+3,	214.148319E-9
1.559190E+3,	190.765244E-9
1.559194E+3,	158.566191E-9
1.559198E+3,	128.802642E-9
1.559202E+3,	98.482790E-9
1.559206E+3,	77.211900E-9
1.559210E+3,	54.501362E-9
1.559214E+3,	39.305401E-9
1.559218E+3,	24.248406E-9
1.559222E+3,	16.817480E-9
1.559226E+3,	15.783005E-9
1.559230E+3,	18.933380E-9
1.559234E+3,	28.946568E-9
1.559238E+3,	43.042150E-9
1.559242E+3,	57.812231E-9
1.559246E+3,	80.944871E-9
1.559250E+3,	104.646975E-9
1.559254E+3,	125.198638E-9
1.559258E+3,	151.776464E-9
1.559262E+3,	172.548366E-9
1.559266E+3,	185.698841E-9
1.559270E+3,	195.109997E-9
1.559274E+3,	199.178142E-9
1.559278E+3,	195.612343E-9
1.559282E+3,	186.444122E-9
1.559286E+3,	165.698284E-9
1.559290E+3,	141.994175E-9
1.559294E+3,	120.676858E-9
1.559298E+3,	90.640292E-9
1.559302E+3,	64.285099E-9
1.559306E+3,	47.237440E-9
1.559310E+3,	33.980374E-9
1.559314E+3,	27.489866E-9
1.559318E+3,	29.236384E-9
1.559322E+3,	37.139925E-9
1.559326E+3,	55.330098E-9
1.559330E+3,	78.184664E-9
1.559334E+3,	100.232260E-9
1.559338E+3,	129.005246E-9
1.559342E+3,	153.676408E-9
1.559346E+3,	171.812841E-9
1.559350E+3,	188.768133E-9
1.559354E+3,	201.870726E-9
1.559358E+3,	205.859785E-9
1.559362E+3,	202.603577E-9
1.559366E+3,	191.704608E-9
1.559370E+3,	176.910147E-9
1.559374E+3,	161.614617E-9
1.559378E+3,	137.380780E-9
1.559382E+3,	112.525889E-9
1.559386E+3,	92.891774E-9
1.559390E+3,	72.949328E-9
1.559394E+3,	53.555578E-9
1.559398E+3,	40.157668E-9
1.559402E+3,	33.210439E-9
1.559406E+3,	30.261451E-9
1.559410E+3,	33.627577E-9
1.559414E+3,	41.724895E-9
1.559418E+3,	59.272176E-9
1.559422E+3,	80.283555E-9
1.559426E+3,	100.039394E-9
1.559430E+3,	124.758624E-9
1.559434E+3,	156.967462E-9
1.559438E+3,	185.934296E-9
1.559442E+3,	206.754210E-9
1.559446E+3,	231.749788E-9
1.559450E+3,	246.954046E-9
1.559454E+3,	254.633195E-9
1.559458E+3,	255.359957E-9
1.559462E+3,	247.376592E-9
1.559466E+3,	233.688431E-9
1.559470E+3,	211.760097E-9
1.559474E+3,	177.550571E-9
1.559478E+3,	141.940525E-9
1.559482E+3,	101.349119E-9
1.559486E+3,	74.482835E-9
1.559490E+3,	45.220501E-9
1.559494E+3,	29.240610E-9
1.559498E+3,	19.036236E-9
1.559502E+3,	19.453897E-9
1.559506E+3,	26.529379E-9
1.559510E+3,	39.892257E-9
1.559514E+3,	61.791084E-9
1.559518E+3,	85.220490E-9
1.559522E+3,	105.448052E-9
1.559526E+3,	129.447645E-9
1.559530E+3,	146.973237E-9
1.559534E+3,	157.551477E-9
1.559538E+3,	165.629849E-9
1.559542E+3,	166.752840E-9
1.559546E+3,	162.775805E-9
1.559550E+3,	154.381504E-9
1.559554E+3,	139.781733E-9
1.559558E+3,	123.772926E-9
1.559562E+3,	109.868728E-9
1.559566E+3,	90.349040E-9
1.559570E+3,	72.531570E-9
1.559574E+3,	59.870770E-9
1.559578E+3,	46.735603E-9
1.559582E+3,	38.546446E-9
1.559586E+3,	35.602362E-9
1.559590E+3,	36.730361E-9
1.559594E+3,	45.596443E-9
1.559598E+3,	60.767564E-9
1.559602E+3,	79.640365E-9
1.559606E+3,	111.456450E-9
1.559610E+3,	144.621923E-9
1.559614E+3,	172.743859E-9
1.559618E+3,	212.629639E-9
1.559622E+3,	248.963207E-9
1.559626E+3,	270.855048E-9
1.559630E+3,	290.948834E-9
1.559634E+3,	302.991515E-9
1.559638E+3,	304.277654E-9
1.559642E+3,	297.246982E-9
1.559646E+3,	276.046945E-9
1.559650E+3,	245.586690E-9
1.559654E+3,	212.428895E-9
1.559658E+3,	167.053989E-9
1.559662E+3,	128.636721E-9
1.559666E+3,	96.041946E-9
1.559670E+3,	62.941368E-9
1.559674E+3,	38.383339E-9
1.559678E+3,	23.598656E-9
1.559682E+3,	18.630526E-9
1.559686E+3,	21.164805E-9
1.559690E+3,	30.140435E-9
1.559694E+3,	41.716528E-9
1.559698E+3,	61.997325E-9
1.559702E+3,	82.746650E-9
1.559706E+3,	100.476135E-9
1.559710E+3,	118.635956E-9
1.559714E+3,	137.286897E-9
1.559718E+3,	151.165343E-9
1.559722E+3,	159.568491E-9
1.559726E+3,	166.328056E-9
1.559730E+3,	167.698323E-9
1.559734E+3,	164.670064E-9
1.559738E+3,	155.988492E-9
1.559742E+3,	143.449561E-9
1.559746E+3,	129.977829E-9
1.559750E+3,	112.735294E-9
1.559754E+3,	90.648048E-9
1.559758E+3,	71.423954E-9
1.559762E+3,	57.753057E-9
1.559766E+3,	44.638945E-9
1.559770E+3,	39.072521E-9
1.559774E+3,	40.672754E-9
1.559778E+3,	52.264471E-9
1.559782E+3,	72.575094E-9
1.559786E+3,	98.050841E-9
1.559790E+3,	131.658629E-9
1.559794E+3,	174.394019E-9
1.559798E+3,	217.171213E-9
1.559802E+3,	248.040552E-9
1.559806E+3,	282.261666E-9
1.559810E+3,	308.817413E-9
1.559814E+3,	321.130716E-9
1.559818E+3,	324.382736E-9
1.559822E+3,	316.194094E-9
1.559826E+3,	300.756469E-9
1.559830E+3,	276.251177E-9
1.559834E+3,	237.374571E-9
1.559838E+3,	195.738527E-9
1.559842E+3,	160.543908E-9
1.559846E+3,	108.035660E-9
1.559850E+3,	80.003208E-9
1.559854E+3,	54.790855E-9
1.559858E+3,	33.258656E-9
1.559862E+3,	19.837892E-9
1.559866E+3,	16.937502E-9
1.559870E+3,	20.011946E-9
1.559874E+3,	30.964594E-9
1.559878E+3,	46.413052E-9
1.559882E+3,	62.463667E-9
1.559886E+3,	86.216528E-9
1.559890E+3,	108.799193E-9
1.559894E+3,	127.490939E-9
1.559898E+3,	150.356192E-9
1.559902E+3,	167.354879E-9
1.559906E+3,	177.485680E-9
1.559910E+3,	185.608090E-9
1.559914E+3,	189.974355E-9
1.559918E+3,	188.532822E-9
1.559922E+3,	182.851237E-9
1.559926E+3,	169.470202E-9
1.559930E+3,	152.758076E-9
1.559934E+3,	136.693673E-9
1.559938E+3,	112.695431E-9
1.559942E+3,	90.059915E-9
1.559946E+3,	72.134286E-9
1.559950E+3,	55.032221E-9
1.559954E+3,	42.123773E-9
1.559958E+3,	37.979931E-9
1.559962E+3,	41.343490E-9
1.559966E+3,	55.145412E-9
1.559970E+3,	76.642335E-9
1.559974E+3,	101.257080E-9
1.559978E+3,	140.664985E-9
1.559982E+3,	179.151813E-9
1.559986E+3,	208.227424E-9
1.559990E+3,	239.229810E-9
1.559994E+3,	266.091252E-9
1.559998E+3,	284.269401E-9
1.560002E+3,	289.482893E-9
1.560006E+3,	285.152727E-9
1.560010E+3,	271.428087E-9
1.560014E+3,	252.560824E-9
1.560018E+3,	217.933742E-9
1.560022E+3,	181.526462E-9
1.560026E+3,	150.531439E-9
1.560030E+3,	104.808825E-9
1.560034E+3,	76.266309E-9
1.560038E+3,	54.002920E-9
1.560042E+3,	36.794069E-9
1.560046E+3,	23.175120E-9
1.560050E+3,	19.145839E-9
1.560054E+3,	22.357127E-9
1.560058E+3,	34.274194E-9
1.560062E+3,	51.248505E-9
1.560066E+3,	68.881130E-9
1.560070E+3,	95.332169E-9
1.560074E+3,	122.015011E-9
1.560078E+3,	144.926577E-9
1.560082E+3,	174.056670E-9
1.560086E+3,	197.693477E-9
1.560090E+3,	214.418464E-9
1.560094E+3,	229.086175E-9
1.560098E+3,	238.489920E-9
1.560102E+3,	240.650359E-9
1.560106E+3,	236.293157E-9
1.560110E+3,	221.460603E-9
1.560114E+3,	199.971588E-9
1.560118E+3,	178.583755E-9
1.560122E+3,	145.728603E-9
1.560126E+3,	104.621669E-9
1.560130E+3,	73.600535E-9
1.560134E+3,	51.623194E-9
1.560138E+3,	31.819221E-9
1.560142E+3,	22.688317E-9
1.560146E+3,	21.785242E-9
1.560150E+3,	32.637233E-9
1.560154E+3,	52.722931E-9
1.560158E+3,	76.138805E-9
1.560162E+3,	112.651380E-9
1.560166E+3,	146.901084E-9
1.560170E+3,	173.064974E-9
1.560174E+3,	201.647524E-9
1.560178E+3,	223.219849E-9
1.560182E+3,	234.382313E-9
1.560186E+3,	237.858043E-9
1.560190E+3,	230.518046E-9
1.560194E+3,	219.211801E-9
1.560198E+3,	200.989556E-9
1.560202E+3,	174.351076E-9
1.560206E+3,	146.081220E-9
1.560210E+3,	120.554218E-9
1.560214E+3,	83.866229E-9
1.560218E+3,	57.958512E-9
1.560222E+3,	41.000947E-9
1.560226E+3,	25.754032E-9
1.560230E+3,	19.326996E-9
1.560234E+3,	19.369680E-9
1.560238E+3,	27.831489E-9
1.560242E+3,	43.301820E-9
1.560246E+3,	60.811525E-9
1.560250E+3,	84.314769E-9
1.560254E+3,	118.106272E-9
1.560258E+3,	151.277272E-9
1.560262E+3,	179.635362E-9
1.560266E+3,	217.442833E-9
1.560270E+3,	247.428455E-9
1.560274E+3,	267.268467E-9
1.560278E+3,	287.693701E-9
1.560282E+3,	296.287308E-9
1.560286E+3,	296.246661E-9
1.560290E+3,	284.812085E-9
1.560294E+3,	263.609942E-9
1.560298E+3,	238.500999E-9
1.560302E+3,	205.807632E-9
1.560306E+3,	162.912029E-9
1.560310E+3,	124.462187E-9
1.560314E+3,	91.743380E-9
1.560318E+3,	56.524785E-9
1.560322E+3,	36.186293E-9
1.560326E+3,	28.156488E-9
1.560330E+3,	29.847839E-9
1.560334E+3,	42.053687E-9
1.560338E+3,	58.754036E-9
1.560342E+3,	88.376269E-9
1.560346E+3,	119.544819E-9
1.560350E+3,	145.173022E-9
1.560354E+3,	170.307964E-9
1.560358E+3,	193.644348E-9
1.560362E+3,	208.215375E-9
1.560366E+3,	213.697624E-9
1.560370E+3,	212.900325E-9
1.560374E+3,	204.238469E-9
1.560378E+3,	191.319181E-9
1.560382E+3,	169.774542E-9
1.560386E+3,	148.312286E-9
1.560390E+3,	128.250508E-9
1.560394E+3,	100.448296E-9
1.560398E+3,	74.445464E-9
1.560402E+3,	58.175239E-9
1.560406E+3,	41.967029E-9
1.560410E+3,	29.656951E-9
1.560414E+3,	25.164570E-9
1.560418E+3,	27.136450E-9
1.560422E+3,	38.353935E-9
1.560426E+3,	56.869118E-9
1.560430E+3,	78.257109E-9
1.560434E+3,	113.853025E-9
1.560438E+3,	151.173004E-9
1.560442E+3,	183.651051E-9
1.560446E+3,	230.545610E-9
1.560450E+3,	265.559942E-9
1.560454E+3,	293.811426E-9
1.560458E+3,	321.275583E-9
1.560462E+3,	337.590385E-9
1.560466E+3,	340.747030E-9
1.560470E+3,	333.315082E-9
1.560474E+3,	309.879001E-9
1.560478E+3,	275.116832E-9
1.560482E+3,	237.795536E-9
1.560486E+3,	184.977869E-9
1.560490E+3,	139.384661E-9
1.560494E+3,	97.621090E-9
1.560498E+3,	67.725658E-9
1.560502E+3,	40.439217E-9
1.560506E+3,	28.628882E-9
1.560510E+3,	24.216550E-9
1.560514E+3,	31.959931E-9
1.560518E+3,	47.498590E-9
1.560522E+3,	64.857589E-9
1.560526E+3,	92.884573E-9
1.560530E+3,	122.119587E-9
1.560534E+3,	146.180169E-9
1.560538E+3,	173.433863E-9
1.560542E+3,	193.240090E-9
1.560546E+3,	204.516433E-9
1.560550E+3,	212.060743E-9
1.560554E+3,	211.804851E-9
1.560558E+3,	205.974100E-9
1.560562E+3,	194.641739E-9
1.560566E+3,	175.598712E-9
1.560570E+3,	154.976055E-9
1.560574E+3,	135.738901E-9
1.560578E+3,	108.999227E-9
1.560582E+3,	84.008735E-9
1.560586E+3,	63.995261E-9
1.560590E+3,	42.682338E-9
1.560594E+3,	29.297305E-9
1.560598E+3,	24.340909E-9
1.560602E+3,	26.645450E-9
1.560606E+3,	37.791291E-9
1.560610E+3,	54.455746E-9
1.560614E+3,	80.823006E-9
1.560618E+3,	121.209106E-9
1.560622E+3,	163.260905E-9
1.560626E+3,	198.517685E-9
1.560630E+3,	243.508965E-9
1.560634E+3,	281.043089E-9
1.560638E+3,	305.335057E-9
1.560642E+3,	327.443534E-9
1.560646E+3,	336.640267E-9
1.560650E+3,	334.754644E-9
1.560654E+3,	318.450668E-9
1.560658E+3,	293.355340E-9
1.560662E+3,	266.530553E-9
1.560666E+3,	230.628379E-9
1.560670E+3,	180.563273E-9
1.560674E+3,	134.407133E-9
1.560678E+3,	97.863475E-9
1.560682E+3,	59.353852E-9
1.560686E+3,	38.685981E-9
1.560690E+3,	28.451602E-9
1.560694E+3,	25.032417E-9
1.560698E+3,	32.423939E-9
1.560702E+3,	45.534311E-9
1.560706E+3,	69.201488E-9
1.560710E+3,	94.696178E-9
1.560714E+3,	116.936279E-9
1.560718E+3,	141.667663E-9
1.560722E+3,	168.155302E-9
1.560726E+3,	188.704136E-9
1.560730E+3,	201.056871E-9
1.560734E+3,	210.867470E-9
1.560738E+3,	213.435606E-9
1.560742E+3,	210.353625E-9
1.560746E+3,	199.953961E-9
1.560750E+3,	185.390994E-9
1.560754E+3,	169.267980E-9
1.560758E+3,	144.550575E-9
1.560762E+3,	121.179745E-9
1.560766E+3,	101.316831E-9
1.560770E+3,	78.817392E-9
1.560774E+3,	54.058532E-9
1.560778E+3,	35.155563E-9
1.560782E+3,	24.659931E-9
1.560786E+3,	19.835208E-9
1.560790E+3,	23.920326E-9
1.560794E+3,	33.510755E-9
1.560798E+3,	55.518423E-9
1.560802E+3,	85.222452E-9
1.560806E+3,	116.702407E-9
1.560810E+3,	161.252320E-9
1.560814E+3,	202.318945E-9
1.560818E+3,	234.554301E-9
1.560822E+3,	268.019029E-9
1.560826E+3,	289.777217E-9
1.560830E+3,	298.315773E-9
1.560834E+3,	297.485460E-9
1.560838E+3,	282.526743E-9
1.560842E+3,	257.880305E-9
1.560846E+3,	230.528241E-9
1.560850E+3,	187.215907E-9
1.560854E+3,	145.190293E-9
1.560858E+3,	100.698722E-9
1.560862E+3,	70.632346E-9
1.560866E+3,	41.504388E-9
1.560870E+3,	28.254070E-9
1.560874E+3,	21.463606E-9
1.560878E+3,	24.983635E-9
1.560882E+3,	35.652114E-9
1.560886E+3,	54.529175E-9
1.560890E+3,	83.845568E-9
1.560894E+3,	112.937334E-9
1.560898E+3,	137.371138E-9
1.560902E+3,	169.949476E-9
1.560906E+3,	198.337579E-9
1.560910E+3,	223.775096E-9
1.560914E+3,	245.964080E-9
1.560918E+3,	260.311579E-9
1.560922E+3,	267.368680E-9
1.560926E+3,	269.523780E-9
1.560930E+3,	265.391945E-9
1.560934E+3,	256.253078E-9
1.560938E+3,	240.504770E-9
1.560942E+3,	212.325630E-9
1.560946E+3,	180.075284E-9
1.560950E+3,	151.032659E-9
1.560954E+3,	106.219997E-9
1.560958E+3,	76.785835E-9
1.560962E+3,	53.260066E-9
1.560966E+3,	32.349348E-9
1.560970E+3,	23.111552E-9
1.560974E+3,	26.230675E-9
1.560978E+3,	42.651254E-9
1.560982E+3,	67.449260E-9
1.560986E+3,	94.810412E-9
1.560990E+3,	130.054968E-9
1.560994E+3,	173.633229E-9
1.560998E+3,	208.912945E-9
1.561002E+3,	235.978688E-9
1.561006E+3,	256.581626E-9
1.561010E+3,	266.099537E-9
1.561014E+3,	264.879477E-9
1.561018E+3,	252.920732E-9
1.561022E+3,	231.039059E-9
1.561026E+3,	207.906279E-9
1.561030E+3,	173.603580E-9
1.561034E+3,	141.078180E-9
1.561038E+3,	106.309634E-9
1.561042E+3,	75.763817E-9
1.561046E+3,	46.930611E-9
1.561050E+3,	31.777984E-9
1.561054E+3,	21.460486E-9
1.561058E+3,	19.229164E-9
1.561062E+3,	25.134912E-9
1.561066E+3,	36.077939E-9
1.561070E+3,	58.268706E-9
1.561074E+3,	85.419395E-9
1.561078E+3,	112.469536E-9
1.561082E+3,	150.629163E-9
1.561086E+3,	186.300519E-9
1.561090E+3,	214.551325E-9
1.561094E+3,	250.293716E-9
1.561098E+3,	277.326565E-9
1.561102E+3,	295.254297E-9
1.561106E+3,	308.643346E-9
1.561110E+3,	312.018181E-9
1.561114E+3,	307.165647E-9
1.561118E+3,	289.605924E-9
1.561122E+3,	262.711751E-9
1.561126E+3,	232.271017E-9
1.561130E+3,	195.705395E-9
1.561134E+3,	151.834957E-9
1.561138E+3,	99.900792E-9
1.561142E+3,	81.174041E-9
1.561146E+3,	49.090237E-9
1.561150E+3,	32.218184E-9
1.561154E+3,	27.933439E-9
1.561158E+3,	35.411719E-9
1.561162E+3,	52.465294E-9
1.561166E+3,	73.744518E-9
1.561170E+3,	108.584315E-9
1.561174E+3,	145.802349E-9
1.561178E+3,	176.539023E-9
1.561182E+3,	212.199630E-9
1.561186E+3,	239.450893E-9
1.561190E+3,	251.486770E-9
1.561194E+3,	258.299304E-9
1.561198E+3,	255.472479E-9
1.561202E+3,	246.276609E-9
1.561206E+3,	223.024038E-9
1.561210E+3,	195.098697E-9
1.561214E+3,	168.934990E-9
1.561218E+3,	138.060413E-9
1.561222E+3,	100.970147E-9
1.561226E+3,	69.285737E-9
1.561230E+3,	51.368734E-9
1.561234E+3,	31.266804E-9
1.561238E+3,	19.962953E-9
1.561242E+3,	17.481307E-9
1.561246E+3,	22.981906E-9
1.561250E+3,	35.622367E-9
1.561254E+3,	51.473217E-9
1.561258E+3,	78.912143E-9
1.561262E+3,	109.056236E-9
1.561266E+3,	136.068165E-9
1.561270E+3,	173.287639E-9
1.561274E+3,	206.686320E-9
1.561278E+3,	230.940105E-9
1.561282E+3,	260.067557E-9
1.561286E+3,	281.091854E-9
1.561290E+3,	290.288405E-9
1.561294E+3,	292.031200E-9
1.561298E+3,	283.609155E-9
1.561302E+3,	266.627875E-9
1.561306E+3,	245.270969E-9
1.561310E+3,	206.722782E-9
1.561314E+3,	165.747253E-9
1.561318E+3,	131.740159E-9
1.561322E+3,	89.073580E-9
1.561326E+3,	59.414809E-9
1.561330E+3,	43.404441E-9
1.561334E+3,	32.635018E-9
1.561338E+3,	35.321962E-9
1.561342E+3,	47.381550E-9
1.561346E+3,	74.082945E-9
1.561350E+3,	104.855673E-9
1.561354E+3,	132.199519E-9
1.561358E+3,	168.612202E-9
1.561362E+3,	199.385542E-9
1.561366E+3,	221.272116E-9
1.561370E+3,	235.888292E-9
1.561374E+3,	242.854772E-9
1.561378E+3,	240.670092E-9
1.561382E+3,	233.275812E-9
1.561386E+3,	216.133135E-9
1.561390E+3,	194.558350E-9
1.561394E+3,	173.723306E-9
1.561398E+3,	143.080271E-9
1.561402E+3,	114.430744E-9
1.561406E+3,	89.294625E-9
1.561410E+3,	63.034242E-9
1.561414E+3,	43.343260E-9
1.561418E+3,	30.308003E-9
1.561422E+3,	19.739023E-9
1.561426E+3,	16.039057E-9
1.561430E+3,	19.343318E-9
1.561434E+3,	31.117309E-9
1.561438E+3,	48.568337E-9
1.561442E+3,	68.450258E-9
1.561446E+3,	95.132960E-9
1.561450E+3,	131.395658E-9
1.561454E+3,	166.322050E-9
1.561458E+3,	193.041057E-9
1.561462E+3,	227.820300E-9
1.561466E+3,	250.084511E-9
1.561470E+3,	263.110942E-9
1.561474E+3,	270.939575E-9
1.561478E+3,	267.247717E-9
1.561482E+3,	253.735428E-9
1.561486E+3,	224.824431E-9
1.561490E+3,	192.288309E-9
1.561494E+3,	161.987955E-9
1.561498E+3,	110.682944E-9
1.561502E+3,	82.682057E-9
1.561506E+3,	56.683270E-9
1.561510E+3,	36.651681E-9
1.561514E+3,	28.531739E-9
1.561518E+3,	30.822136E-9
1.561522E+3,	42.183221E-9
1.561526E+3,	66.689507E-9
1.561530E+3,	96.589766E-9
1.561534E+3,	124.732857E-9
1.561538E+3,	163.630290E-9
1.561542E+3,	198.272048E-9
1.561546E+3,	227.520963E-9
1.561550E+3,	250.349353E-9
1.561554E+3,	265.984398E-9
1.561558E+3,	272.270082E-9
1.561562E+3,	271.992999E-9
1.561566E+3,	265.449651E-9
1.561570E+3,	254.916407E-9
1.561574E+3,	234.513920E-9
1.561578E+3,	209.946094E-9
1.561582E+3,	186.809368E-9
1.561586E+3,	152.437881E-9
1.561590E+3,	122.218713E-9
1.561594E+3,	97.610939E-9
1.561598E+3,	70.209690E-9
1.561602E+3,	46.781854E-9
1.561606E+3,	29.174257E-9
1.561610E+3,	20.872179E-9
1.561614E+3,	18.845229E-9
1.561618E+3,	26.376498E-9
1.561622E+3,	40.032820E-9
1.561626E+3,	66.896978E-9
1.561630E+3,	98.068726E-9
1.561634E+3,	127.075883E-9
1.561638E+3,	169.533917E-9
1.561642E+3,	206.485670E-9
1.561646E+3,	235.451001E-9
1.561650E+3,	266.064283E-9
1.561654E+3,	283.791873E-9
1.561658E+3,	289.687674E-9
1.561662E+3,	284.777091E-9
1.561666E+3,	268.057209E-9
1.561670E+3,	245.092633E-9
1.561674E+3,	213.443887E-9
1.561678E+3,	172.265082E-9
1.561682E+3,	132.653817E-9
1.561686E+3,	98.985095E-9
1.561690E+3,	61.574884E-9
1.561694E+3,	41.365730E-9
1.561698E+3,	32.613783E-9
1.561702E+3,	31.901279E-9
1.561706E+3,	41.827433E-9
1.561710E+3,	56.995659E-9
1.561714E+3,	83.861802E-9
1.561718E+3,	112.184900E-9
1.561722E+3,	136.027581E-9
1.561726E+3,	165.508685E-9
1.561730E+3,	189.429293E-9
1.561734E+3,	205.589276E-9
1.561738E+3,	223.492823E-9
1.561742E+3,	232.132864E-9
1.561746E+3,	234.989531E-9
1.561750E+3,	232.926189E-9
1.561754E+3,	224.536946E-9
1.561758E+3,	211.973076E-9
1.561762E+3,	197.777521E-9
1.561766E+3,	174.541204E-9
1.561770E+3,	149.136654E-9
1.561774E+3,	126.067651E-9
1.561778E+3,	93.375387E-9
1.561782E+3,	66.926225E-9
1.561786E+3,	50.136134E-9
1.561790E+3,	31.586155E-9
1.561794E+3,	20.944680E-9
1.561798E+3,	18.878945E-9
1.561802E+3,	28.055113E-9
1.561806E+3,	45.315699E-9
1.561810E+3,	65.806650E-9
1.561814E+3,	100.798288E-9
1.561818E+3,	138.067328E-9
1.561822E+3,	169.938924E-9
1.561826E+3,	203.499391E-9
1.561830E+3,	234.229636E-9
1.561834E+3,	252.278326E-9
1.561838E+3,	259.862789E-9
1.561842E+3,	258.092257E-9
1.561846E+3,	246.739274E-9
1.561850E+3,	228.004258E-9
1.561854E+3,	196.491927E-9
1.561858E+3,	163.610495E-9
1.561862E+3,	135.161610E-9
1.561866E+3,	95.937402E-9
1.561870E+3,	65.513012E-9
1.561874E+3,	48.196486E-9
1.561878E+3,	32.310401E-9
1.561882E+3,	27.395480E-9
1.561886E+3,	30.205124E-9
1.561890E+3,	40.849180E-9
1.561894E+3,	55.828939E-9
1.561898E+3,	71.601882E-9
1.561902E+3,	91.719871E-9
1.561906E+3,	116.083332E-9
1.561910E+3,	136.996899E-9
1.561914E+3,	151.327590E-9
1.561918E+3,	166.017832E-9
1.561922E+3,	175.940434E-9
1.561926E+3,	181.582283E-9
1.561930E+3,	184.296175E-9
1.561934E+3,	181.265874E-9
1.561938E+3,	174.170686E-9
1.561942E+3,	159.470949E-9
1.561946E+3,	142.525656E-9
1.561950E+3,	126.426434E-9
1.561954E+3,	101.854551E-9
1.561958E+3,	78.477820E-9
1.561962E+3,	60.258569E-9
1.561966E+3,	39.979324E-9
1.561970E+3,	26.114829E-9
1.561974E+3,	19.405467E-9
1.561978E+3,	17.483391E-9
1.561982E+3,	25.007961E-9
1.561986E+3,	40.157365E-9
1.561990E+3,	58.730279E-9
1.561994E+3,	89.484621E-9
1.561998E+3,	121.255321E-9
1.562002E+3,	149.095373E-9
1.562006E+3,	183.789643E-9
1.562010E+3,	210.967842E-9
1.562014E+3,	226.766292E-9
1.562018E+3,	237.960982E-9
1.562022E+3,	237.644096E-9
1.562026E+3,	228.974950E-9
1.562030E+3,	209.671775E-9
1.562034E+3,	182.375384E-9
1.562038E+3,	156.934907E-9
1.562042E+3,	114.645081E-9
1.562046E+3,	78.072300E-9
1.562050E+3,	61.649511E-9
1.562054E+3,	37.880438E-9
1.562058E+3,	22.828733E-9
1.562062E+3,	17.006332E-9
1.562066E+3,	16.769546E-9
1.562070E+3,	24.200349E-9
1.562074E+3,	35.612164E-9
1.562078E+3,	55.206511E-9
1.562082E+3,	75.550731E-9
1.562086E+3,	93.753387E-9
1.562090E+3,	118.396595E-9
1.562094E+3,	140.394791E-9
1.562098E+3,	156.386227E-9
1.562102E+3,	173.746004E-9
1.562106E+3,	186.551683E-9
1.562110E+3,	193.901811E-9
1.562114E+3,	197.939049E-9
1.562118E+3,	195.768095E-9
1.562122E+3,	189.173348E-9
1.562126E+3,	174.718959E-9
1.562130E+3,	157.090678E-9
1.562134E+3,	139.198709E-9
1.562138E+3,	111.491552E-9
1.562142E+3,	83.724788E-9
1.562146E+3,	62.462524E-9
1.562150E+3,	40.048849E-9
1.562154E+3,	26.319678E-9
1.562158E+3,	21.009124E-9
1.562162E+3,	23.656242E-9
1.562166E+3,	36.169410E-9
1.562170E+3,	55.617488E-9
1.562174E+3,	89.749837E-9
1.562178E+3,	125.581584E-9
1.562182E+3,	155.270584E-9
1.562186E+3,	186.783948E-9
1.562190E+3,	219.403444E-9
1.562194E+3,	240.196127E-9
1.562198E+3,	250.228138E-9
1.562202E+3,	252.733797E-9
1.562206E+3,	245.831513E-9
1.562210E+3,	233.622457E-9
1.562214E+3,	209.306948E-9
1.562218E+3,	181.796131E-9
1.562222E+3,	157.728786E-9
1.562226E+3,	115.561115E-9
1.562230E+3,	81.635451E-9
1.562234E+3,	67.147997E-9
1.562238E+3,	43.830681E-9
1.562242E+3,	27.836852E-9
1.562246E+3,	19.417190E-9
1.562250E+3,	13.634802E-9
1.562254E+3,	14.618059E-9
1.562258E+3,	19.837641E-9
1.562262E+3,	31.372271E-9
1.562266E+3,	45.367487E-9
1.562270E+3,	59.485545E-9
1.562274E+3,	81.014775E-9
1.562278E+3,	103.401038E-9
1.562282E+3,	122.547848E-9
1.562286E+3,	145.947538E-9
1.562290E+3,	165.056516E-9
1.562294E+3,	178.170073E-9
1.562298E+3,	191.106513E-9
1.562302E+3,	197.205613E-9
1.562306E+3,	195.750118E-9
1.562310E+3,	186.166273E-9
1.562314E+3,	171.676848E-9
1.562318E+3,	155.817409E-9
1.562322E+3,	130.135610E-9
1.562326E+3,	103.798896E-9
1.562330E+3,	81.863110E-9
1.562334E+3,	56.123429E-9
1.562338E+3,	38.482482E-9
1.562342E+3,	29.983384E-9
1.562346E+3,	26.819717E-9
1.562350E+3,	32.120341E-9
1.562354E+3,	43.136363E-9
1.562358E+3,	64.858082E-9
1.562362E+3,	88.521264E-9
1.562366E+3,	109.086981E-9
1.562370E+3,	136.263141E-9
1.562374E+3,	158.353293E-9
1.562378E+3,	173.288803E-9
1.562382E+3,	186.871909E-9
1.562386E+3,	191.951597E-9
1.562390E+3,	190.172792E-9
1.562394E+3,	180.562173E-9
1.562398E+3,	167.308153E-9
1.562402E+3,	153.147789E-9
1.562406E+3,	130.082361E-9
1.562410E+3,	106.222239E-9
1.562414E+3,	86.884019E-9
1.562418E+3,	63.533375E-9
1.562422E+3,	44.772690E-9
1.562426E+3,	32.582641E-9
1.562430E+3,	20.732920E-9
1.562434E+3,	14.294430E-9
1.562438E+3,	13.283753E-9
1.562442E+3,	16.551686E-9
1.562446E+3,	26.424912E-9
1.562450E+3,	39.594587E-9
1.562454E+3,	52.680804E-9
1.562458E+3,	74.040044E-9
1.562462E+3,	96.492917E-9
1.562466E+3,	115.783402E-9
1.562470E+3,	140.525884E-9
1.562474E+3,	159.809734E-9
1.562478E+3,	171.567947E-9
1.562482E+3,	181.580046E-9
1.562486E+3,	184.515632E-9
1.562490E+3,	181.277939E-9
1.562494E+3,	169.240713E-9
1.562498E+3,	152.381311E-9
1.562502E+3,	135.346637E-9
1.562506E+3,	109.408969E-9
1.562510E+3,	84.535523E-9
1.562514E+3,	65.186526E-9
1.562518E+3,	43.884443E-9
1.562522E+3,	30.203601E-9
1.562526E+3,	24.026177E-9
1.562530E+3,	22.822457E-9
1.562534E+3,	28.560363E-9
1.562538E+3,	38.645233E-9
1.562542E+3,	57.561454E-9
1.562546E+3,	77.109220E-9
1.562550E+3,	92.532852E-9
1.562554E+3,	110.451689E-9
1.562558E+3,	123.776636E-9
1.562562E+3,	131.104002E-9
1.562566E+3,	135.561451E-9
1.562570E+3,	134.602445E-9
1.562574E+3,	129.780627E-9
1.562578E+3,	119.380191E-9
1.562582E+3,	107.851621E-9
1.562586E+3,	97.168894E-9
1.562590E+3,	81.544823E-9
1.562594E+3,	66.520829E-9
1.562598E+3,	54.185131E-9
1.562602E+3,	39.256093E-9
1.562606E+3,	28.033150E-9
1.562610E+3,	20.938324E-9
1.562614E+3,	14.360630E-9
1.562618E+3,	11.270992E-9
1.562622E+3,	11.566542E-9
1.562626E+3,	16.230147E-9
1.562630E+3,	24.478815E-9
1.562634E+3,	34.041756E-9
1.562638E+3,	50.479142E-9
1.562642E+3,	68.191029E-9
1.562646E+3,	83.266795E-9
1.562650E+3,	103.595347E-9
1.562654E+3,	120.886398E-9
1.562658E+3,	132.449705E-9
1.562662E+3,	142.152976E-9
1.562666E+3,	145.091620E-9
1.562670E+3,	142.657715E-9
1.562674E+3,	132.701711E-9
1.562678E+3,	117.973115E-9
1.562682E+3,	102.797928E-9
1.562686E+3,	83.848481E-9
1.562690E+3,	61.987425E-9
1.562694E+3,	44.416214E-9
1.562698E+3,	32.308976E-9
1.562702E+3,	20.859304E-9
1.562706E+3,	15.354149E-9
1.562710E+3,	14.687320E-9
1.562714E+3,	18.335828E-9
1.562718E+3,	24.613769E-9
1.562722E+3,	31.004049E-9
1.562726E+3,	40.407592E-9
1.562730E+3,	49.255530E-9
1.562734E+3,	55.927798E-9
1.562738E+3,	62.872340E-9
1.562742E+3,	66.869560E-9
1.562746E+3,	68.318040E-9
1.562750E+3,	68.175423E-9
1.562754E+3,	66.225268E-9
1.562758E+3,	63.291101E-9
1.562762E+3,	58.020836E-9
1.562766E+3,	52.394479E-9
1.562770E+3,	47.175253E-9
1.562774E+3,	39.844305E-9
1.562778E+3,	32.731983E-9
1.562782E+3,	27.026654E-9
1.562786E+3,	19.831302E-9
1.562790E+3,	13.866152E-9
1.562794E+3,	10.053437E-9
1.562798E+3,	6.183141E-9
1.562802E+3,	4.112746E-9
1.562806E+3,	3.716475E-9
1.562810E+3,	5.156408E-9
1.562814E+3,	8.183408E-9
1.562818E+3,	11.717778E-9
1.562822E+3,	17.249778E-9
1.562826E+3,	22.731733E-9
1.562830E+3,	27.238844E-9
1.562834E+3,	32.404590E-9
1.562838E+3,	35.802338E-9
1.562842E+3,	37.355617E-9
1.562846E+3,	37.504484E-9
1.562850E+3,	36.159090E-9
1.562854E+3,	33.919554E-9
1.562858E+3,	29.867777E-9
1.562862E+3,	25.214524E-9
1.562866E+3,	21.134291E-9
1.562870E+3,	16.064630E-9
1.562874E+3,	12.047011E-9
1.562878E+3,	9.505688E-9
1.562882E+3,	7.049853E-9
1.562886E+3,	5.636667E-9
1.562890E+3,	5.097935E-9
1.562894E+3,	5.128879E-9
1.562898E+3,	5.610476E-9
1.562902E+3,	6.230780E-9
1.562906E+3,	7.027452E-9
1.562910E+3,	7.710149E-9
1.562914E+3,	8.055263E-9
1.562918E+3,	8.272987E-9
1.562922E+3,	8.295341E-9
1.562926E+3,	8.142303E-9
1.562930E+3,	7.804951E-9
1.562934E+3,	7.367237E-9
1.562938E+3,	6.947745E-9
1.562942E+3,	6.492987E-9
1.562946E+3,	5.924466E-9
1.562950E+3,	5.450231E-9
1.562954E+3,	5.092590E-9
1.562958E+3,	4.688787E-9
1.562962E+3,	4.400091E-9
1.562966E+3,	4.180162E-9
1.562970E+3,	3.903934E-9
1.562974E+3,	3.626567E-9
1.562978E+3,	3.404230E-9
1.562982E+3,	3.093903E-9
1.562986E+3,	2.827764E-9
1.562990E+3,	2.566993E-9
1.562994E+3,	2.190156E-9
1.562998E+3,	1.829639E-9
1.563002E+3,	1.536517E-9
1.563006E+3,	1.151581E-9
1.563010E+3,	879.358918E-12
1.563014E+3,	643.056485E-12
1.563018E+3,	470.779827E-12
1.563022E+3,	361.251859E-12
1.563026E+3,	344.234328E-12
1.563030E+3,	424.250614E-12
1.563034E+3,	526.942909E-12
1.563038E+3,	682.196732E-12
1.563042E+3,	887.831031E-12
1.563046E+3,	1.097610E-9
1.563050E+3,	1.230999E-9
1.563054E+3,	1.360812E-9
1.563058E+3,	1.470381E-9
1.563062E+3,	1.532233E-9
1.563066E+3,	1.585940E-9
1.563070E+3,	1.627751E-9
1.563074E+3,	1.659331E-9
1.563078E+3,	1.740834E-9
1.563082E+3,	1.817583E-9
1.563086E+3,	1.916239E-9
1.563090E+3,	2.089320E-9
1.563094E+3,	2.270927E-9
1.563098E+3,	2.385749E-9
1.563102E+3,	2.592786E-9
1.563106E+3,	2.737108E-9
1.563110E+3,	2.845979E-9
1.563114E+3,	2.925889E-9
1.563118E+3,	2.984461E-9
1.563122E+3,	3.020727E-9
1.563126E+3,	3.003768E-9
1.563130E+3,	2.956329E-9
1.563134E+3,	2.899741E-9
1.563138E+3,	2.750532E-9
1.563142E+3,	2.634306E-9
1.563146E+3,	2.503523E-9
1.563150E+3,	2.271911E-9
1.563154E+3,	1.979688E-9
1.563158E+3,	1.749458E-9
1.563162E+3,	1.401404E-9
1.563166E+3,	1.090684E-9
1.563170E+3,	903.076672E-12
1.563174E+3,	714.652501E-12
1.563178E+3,	670.892979E-12
1.563182E+3,	732.497061E-12
1.563186E+3,	993.889190E-12
1.563190E+3,	1.378563E-9
1.563194E+3,	1.747256E-9
1.563198E+3,	2.338031E-9
1.563202E+3,	2.892831E-9
1.563206E+3,	3.305964E-9
1.563210E+3,	3.734395E-9
1.563214E+3,	3.989027E-9
1.563218E+3,	4.083057E-9
1.563222E+3,	3.980159E-9
1.563226E+3,	3.708342E-9
1.563230E+3,	3.392238E-9
1.563234E+3,	2.834408E-9
1.563238E+3,	2.321986E-9
1.563242E+3,	1.866642E-9
1.563246E+3,	1.423260E-9
1.563250E+3,	1.116350E-9
