YOKOGAWA AQ6370D - S/N: 91S206859
#Date: 26/06/2023 Time: 11:49:39,	
A_WL(nm),	A_I(mW)
1.558250E+3,	5.614686E-9
1.558254E+3,	5.130896E-9
1.558258E+3,	4.678720E-9
1.558262E+3,	4.167550E-9
1.558266E+3,	3.454414E-9
1.558270E+3,	2.788631E-9
1.558274E+3,	2.232575E-9
1.558278E+3,	1.691954E-9
1.558282E+3,	1.225633E-9
1.558286E+3,	1.019190E-9
1.558290E+3,	971.195320E-12
1.558294E+3,	1.146503E-9
1.558298E+3,	1.497834E-9
1.558302E+3,	1.917614E-9
1.558306E+3,	2.471729E-9
1.558310E+3,	3.254392E-9
1.558314E+3,	3.967932E-9
1.558318E+3,	4.480118E-9
1.558322E+3,	5.099067E-9
1.558326E+3,	5.523884E-9
1.558330E+3,	5.695835E-9
1.558334E+3,	5.719693E-9
1.558338E+3,	5.554705E-9
1.558342E+3,	5.178578E-9
1.558346E+3,	4.797910E-9
1.558350E+3,	4.130292E-9
1.558354E+3,	3.483812E-9
1.558358E+3,	2.993736E-9
1.558362E+3,	2.450243E-9
1.558366E+3,	2.100743E-9
1.558370E+3,	1.901657E-9
1.558374E+3,	1.822385E-9
1.558378E+3,	1.870940E-9
1.558382E+3,	2.083471E-9
1.558386E+3,	2.335346E-9
1.558390E+3,	2.694409E-9
1.558394E+3,	3.024575E-9
1.558398E+3,	3.277930E-9
1.558402E+3,	3.477623E-9
1.558406E+3,	3.639506E-9
1.558410E+3,	3.682811E-9
1.558414E+3,	3.601886E-9
1.558418E+3,	3.437600E-9
1.558422E+3,	3.194081E-9
1.558426E+3,	2.962402E-9
1.558430E+3,	2.663675E-9
1.558434E+3,	2.261836E-9
1.558438E+3,	1.911226E-9
1.558442E+3,	1.660780E-9
1.558446E+3,	1.395848E-9
1.558450E+3,	1.203022E-9
1.558454E+3,	1.107450E-9
1.558458E+3,	1.028970E-9
1.558462E+3,	1.036551E-9
1.558466E+3,	1.092982E-9
1.558470E+3,	1.215785E-9
1.558474E+3,	1.331533E-9
1.558478E+3,	1.420066E-9
1.558482E+3,	1.512882E-9
1.558486E+3,	1.559534E-9
1.558490E+3,	1.499429E-9
1.558494E+3,	1.417900E-9
1.558498E+3,	1.319266E-9
1.558502E+3,	1.133149E-9
1.558506E+3,	940.473438E-12
1.558510E+3,	824.920266E-12
1.558514E+3,	698.965617E-12
1.558518E+3,	668.685658E-12
1.558522E+3,	663.747288E-12
1.558526E+3,	774.300523E-12
1.558530E+3,	906.876589E-12
1.558534E+3,	1.009143E-9
1.558538E+3,	1.115156E-9
1.558542E+3,	1.165997E-9
1.558546E+3,	1.134630E-9
1.558550E+3,	1.044299E-9
1.558554E+3,	907.304699E-12
1.558558E+3,	772.054106E-12
1.558562E+3,	732.903669E-12
1.558566E+3,	787.970332E-12
1.558570E+3,	1.099708E-9
1.558574E+3,	1.644180E-9
1.558578E+3,	2.367889E-9
1.558582E+3,	3.680331E-9
1.558586E+3,	5.203585E-9
1.558590E+3,	6.744012E-9
1.558594E+3,	8.685145E-9
1.558598E+3,	11.282970E-9
1.558602E+3,	13.577218E-9
1.558606E+3,	15.174725E-9
1.558610E+3,	16.831935E-9
1.558614E+3,	17.944849E-9
1.558618E+3,	18.342889E-9
1.558622E+3,	18.074211E-9
1.558626E+3,	17.120474E-9
1.558630E+3,	15.834307E-9
1.558634E+3,	14.124463E-9
1.558638E+3,	11.607384E-9
1.558642E+3,	9.136501E-9
1.558646E+3,	7.168424E-9
1.558650E+3,	5.024262E-9
1.558654E+3,	3.742771E-9
1.558658E+3,	3.471010E-9
1.558662E+3,	4.019829E-9
1.558666E+3,	6.063409E-9
1.558670E+3,	9.201183E-9
1.558674E+3,	12.792088E-9
1.558678E+3,	18.938404E-9
1.558682E+3,	25.571264E-9
1.558686E+3,	31.134055E-9
1.558690E+3,	37.141151E-9
1.558694E+3,	43.712946E-9
1.558698E+3,	48.886776E-9
1.558702E+3,	51.960618E-9
1.558706E+3,	54.158156E-9
1.558710E+3,	54.030444E-9
1.558714E+3,	52.264201E-9
1.558718E+3,	47.980142E-9
1.558722E+3,	42.549356E-9
1.558726E+3,	36.836870E-9
1.558730E+3,	30.002030E-9
1.558734E+3,	22.093618E-9
1.558738E+3,	15.550573E-9
1.558742E+3,	11.665141E-9
1.558746E+3,	9.068126E-9
1.558750E+3,	9.249543E-9
1.558754E+3,	11.937044E-9
1.558758E+3,	17.677469E-9
1.558762E+3,	28.035458E-9
1.558766E+3,	39.860919E-9
1.558770E+3,	50.750941E-9
1.558774E+3,	66.342362E-9
1.558778E+3,	81.338563E-9
1.558782E+3,	93.396497E-9
1.558786E+3,	105.044764E-9
1.558790E+3,	114.717710E-9
1.558794E+3,	119.317682E-9
1.558798E+3,	119.569937E-9
1.558802E+3,	115.187088E-9
1.558806E+3,	106.737569E-9
1.558810E+3,	96.931502E-9
1.558814E+3,	81.368906E-9
1.558818E+3,	65.666056E-9
1.558822E+3,	52.540770E-9
1.558826E+3,	39.192699E-9
1.558830E+3,	25.829401E-9
1.558834E+3,	16.172470E-9
1.558838E+3,	11.535259E-9
1.558842E+3,	10.599868E-9
1.558846E+3,	14.972550E-9
1.558850E+3,	22.642837E-9
1.558854E+3,	34.223548E-9
1.558858E+3,	51.742237E-9
1.558862E+3,	70.231286E-9
1.558866E+3,	86.715277E-9
1.558870E+3,	108.019357E-9
1.558874E+3,	124.709965E-9
1.558878E+3,	134.965701E-9
1.558882E+3,	143.307514E-9
1.558886E+3,	148.360192E-9
1.558890E+3,	148.022937E-9
1.558894E+3,	143.446123E-9
1.558898E+3,	132.377786E-9
1.558902E+3,	118.776065E-9
1.558906E+3,	105.494037E-9
1.558910E+3,	85.654101E-9
1.558914E+3,	66.194144E-9
1.558918E+3,	51.434637E-9
1.558922E+3,	37.447745E-9
1.558926E+3,	25.879367E-9
1.558930E+3,	20.324166E-9
1.558934E+3,	20.213402E-9
1.558938E+3,	26.075372E-9
1.558942E+3,	37.277482E-9
1.558946E+3,	51.229811E-9
1.558950E+3,	70.833138E-9
1.558954E+3,	97.412832E-9
1.558958E+3,	121.401719E-9
1.558962E+3,	139.419591E-9
1.558966E+3,	160.508707E-9
1.558970E+3,	175.928871E-9
1.558974E+3,	183.814212E-9
1.558978E+3,	186.394546E-9
1.558982E+3,	181.737248E-9
1.558986E+3,	173.080485E-9
1.558990E+3,	159.160851E-9
1.558994E+3,	136.844125E-9
1.558998E+3,	112.616097E-9
1.559002E+3,	91.915698E-9
1.559006E+3,	66.326749E-9
1.559010E+3,	45.883797E-9
1.559014E+3,	32.697277E-9
1.559018E+3,	22.047062E-9
1.559022E+3,	16.310236E-9
1.559026E+3,	18.163994E-9
1.559030E+3,	25.391288E-9
1.559034E+3,	41.338715E-9
1.559038E+3,	59.840010E-9
1.559042E+3,	77.576442E-9
1.559046E+3,	104.385058E-9
1.559050E+3,	129.265371E-9
1.559054E+3,	148.414914E-9
1.559058E+3,	166.702511E-9
1.559062E+3,	182.685843E-9
1.559066E+3,	191.831077E-9
1.559070E+3,	194.590395E-9
1.559074E+3,	192.096739E-9
1.559078E+3,	182.882518E-9
1.559082E+3,	170.085545E-9
1.559086E+3,	147.851096E-9
1.559090E+3,	124.963201E-9
1.559094E+3,	105.305165E-9
1.559098E+3,	82.914293E-9
1.559102E+3,	57.874475E-9
1.559106E+3,	38.270923E-9
1.559110E+3,	26.703276E-9
1.559114E+3,	18.749511E-9
1.559118E+3,	18.610706E-9
1.559122E+3,	24.099401E-9
1.559126E+3,	38.415142E-9
1.559130E+3,	57.839522E-9
1.559134E+3,	77.916768E-9
1.559138E+3,	101.527089E-9
1.559142E+3,	130.057952E-9
1.559146E+3,	155.386916E-9
1.559150E+3,	173.634892E-9
1.559154E+3,	193.083930E-9
1.559158E+3,	205.095070E-9
1.559162E+3,	209.084520E-9
1.559166E+3,	206.144441E-9
1.559170E+3,	197.259571E-9
1.559174E+3,	185.390226E-9
1.559178E+3,	167.603292E-9
1.559182E+3,	141.605835E-9
1.559186E+3,	115.816244E-9
1.559190E+3,	94.318858E-9
1.559194E+3,	68.294372E-9
1.559198E+3,	48.341427E-9
1.559202E+3,	36.009058E-9
1.559206E+3,	25.949687E-9
1.559210E+3,	23.401903E-9
1.559214E+3,	27.519059E-9
1.559218E+3,	37.755290E-9
1.559222E+3,	56.446544E-9
1.559226E+3,	77.490927E-9
1.559230E+3,	96.716060E-9
1.559234E+3,	123.490150E-9
1.559238E+3,	148.251189E-9
1.559242E+3,	166.618341E-9
1.559246E+3,	186.353336E-9
1.559250E+3,	198.513524E-9
1.559254E+3,	203.557083E-9
1.559258E+3,	204.701628E-9
1.559262E+3,	199.245421E-9
1.559266E+3,	188.142348E-9
1.559270E+3,	174.495521E-9
1.559274E+3,	151.613691E-9
1.559278E+3,	127.572252E-9
1.559282E+3,	106.230246E-9
1.559286E+3,	78.823305E-9
1.559290E+3,	55.726392E-9
1.559294E+3,	39.786636E-9
1.559298E+3,	27.000828E-9
1.559302E+3,	19.576157E-9
1.559306E+3,	20.087991E-9
1.559310E+3,	26.722648E-9
1.559314E+3,	44.506364E-9
1.559318E+3,	66.811183E-9
1.559322E+3,	88.402039E-9
1.559326E+3,	118.630746E-9
1.559330E+3,	146.336611E-9
1.559334E+3,	169.065206E-9
1.559338E+3,	192.298831E-9
1.559342E+3,	211.539469E-9
1.559346E+3,	221.126257E-9
1.559350E+3,	222.433700E-9
1.559354E+3,	215.994957E-9
1.559358E+3,	204.135330E-9
1.559362E+3,	189.921492E-9
1.559366E+3,	164.703503E-9
1.559370E+3,	138.264921E-9
1.559374E+3,	115.746928E-9
1.559378E+3,	90.144105E-9
1.559382E+3,	67.366465E-9
1.559386E+3,	51.944482E-9
1.559390E+3,	43.162616E-9
1.559394E+3,	38.840268E-9
1.559398E+3,	41.360523E-9
1.559402E+3,	48.343414E-9
1.559406E+3,	63.614959E-9
1.559410E+3,	81.950004E-9
1.559414E+3,	99.368240E-9
1.559418E+3,	121.716911E-9
1.559422E+3,	149.145262E-9
1.559426E+3,	171.954019E-9
1.559430E+3,	187.184315E-9
1.559434E+3,	201.840782E-9
1.559438E+3,	211.586490E-9
1.559442E+3,	214.612260E-9
1.559446E+3,	210.673738E-9
1.559450E+3,	198.858073E-9
1.559454E+3,	182.976348E-9
1.559458E+3,	164.706127E-9
1.559462E+3,	134.786487E-9
1.559466E+3,	94.608237E-9
1.559470E+3,	78.818609E-9
1.559474E+3,	49.359574E-9
1.559478E+3,	30.226705E-9
1.559482E+3,	20.722114E-9
1.559486E+3,	18.022633E-9
1.559490E+3,	24.187346E-9
1.559494E+3,	35.717065E-9
1.559498E+3,	54.564579E-9
1.559502E+3,	83.973161E-9
1.559506E+3,	115.057578E-9
1.559510E+3,	140.497553E-9
1.559514E+3,	171.359426E-9
1.559518E+3,	196.691188E-9
1.559522E+3,	216.067153E-9
1.559526E+3,	232.137913E-9
1.559530E+3,	240.199757E-9
1.559534E+3,	240.490336E-9
1.559538E+3,	235.527308E-9
1.559542E+3,	222.520944E-9
1.559546E+3,	203.674389E-9
1.559550E+3,	183.748148E-9
1.559554E+3,	153.163063E-9
1.559558E+3,	124.620291E-9
1.559562E+3,	96.526614E-9
1.559566E+3,	76.078889E-9
1.559570E+3,	56.701385E-9
1.559574E+3,	46.261691E-9
1.559578E+3,	39.977433E-9
1.559582E+3,	41.785755E-9
1.559586E+3,	50.669451E-9
1.559590E+3,	62.229466E-9
1.559594E+3,	82.956591E-9
1.559598E+3,	107.185514E-9
1.559602E+3,	130.240240E-9
1.559606E+3,	160.019788E-9
1.559610E+3,	183.647495E-9
1.559614E+3,	199.076183E-9
1.559618E+3,	211.254262E-9
1.559622E+3,	218.616068E-9
1.559626E+3,	217.104062E-9
1.559630E+3,	209.500858E-9
1.559634E+3,	192.027803E-9
1.559638E+3,	170.423472E-9
1.559642E+3,	148.521742E-9
1.559646E+3,	108.668308E-9
1.559650E+3,	79.280596E-9
1.559654E+3,	64.962605E-9
1.559658E+3,	45.668279E-9
1.559662E+3,	26.894285E-9
1.559666E+3,	19.319624E-9
1.559670E+3,	20.034520E-9
1.559674E+3,	29.564292E-9
1.559678E+3,	45.867115E-9
1.559682E+3,	65.722792E-9
1.559686E+3,	99.413697E-9
1.559690E+3,	133.578244E-9
1.559694E+3,	160.576370E-9
1.559698E+3,	188.540384E-9
1.559702E+3,	219.478813E-9
1.559706E+3,	239.973219E-9
1.559710E+3,	251.413275E-9
1.559714E+3,	258.189773E-9
1.559718E+3,	256.173102E-9
1.559722E+3,	248.204050E-9
1.559726E+3,	229.708369E-9
1.559730E+3,	208.108529E-9
1.559734E+3,	186.204180E-9
1.559738E+3,	158.669980E-9
1.559742E+3,	126.103653E-9
1.559746E+3,	95.537483E-9
1.559750E+3,	73.214468E-9
1.559754E+3,	53.870525E-9
1.559758E+3,	40.931160E-9
1.559762E+3,	35.874329E-9
1.559766E+3,	38.043293E-9
1.559770E+3,	48.608747E-9
1.559774E+3,	63.271481E-9
1.559778E+3,	84.353262E-9
1.559782E+3,	115.070051E-9
1.559786E+3,	144.971131E-9
1.559790E+3,	169.890760E-9
1.559794E+3,	199.888601E-9
1.559798E+3,	225.982433E-9
1.559802E+3,	241.773105E-9
1.559806E+3,	252.471614E-9
1.559810E+3,	253.621403E-9
1.559814E+3,	248.239422E-9
1.559818E+3,	234.090848E-9
1.559822E+3,	205.895446E-9
1.559826E+3,	173.908865E-9
1.559830E+3,	146.129419E-9
1.559834E+3,	103.958923E-9
1.559838E+3,	76.184735E-9
1.559842E+3,	52.476909E-9
1.559846E+3,	30.701691E-9
1.559850E+3,	20.923803E-9
1.559854E+3,	21.930196E-9
1.559858E+3,	30.267125E-9
1.559862E+3,	49.465832E-9
1.559866E+3,	74.490493E-9
1.559870E+3,	99.540721E-9
1.559874E+3,	136.788310E-9
1.559878E+3,	170.918495E-9
1.559882E+3,	195.586718E-9
1.559886E+3,	225.441155E-9
1.559890E+3,	242.730399E-9
1.559894E+3,	253.071122E-9
1.559898E+3,	259.038663E-9
1.559902E+3,	257.513399E-9
1.559906E+3,	248.605263E-9
1.559910E+3,	234.807150E-9
1.559914E+3,	210.501926E-9
1.559918E+3,	185.253337E-9
1.559922E+3,	162.890672E-9
1.559926E+3,	131.605428E-9
1.559930E+3,	93.987719E-9
1.559934E+3,	79.465740E-9
1.559938E+3,	57.744966E-9
1.559942E+3,	40.102528E-9
1.559946E+3,	30.986381E-9
1.559950E+3,	30.399773E-9
1.559954E+3,	40.062153E-9
1.559958E+3,	57.706545E-9
1.559962E+3,	77.627844E-9
1.559966E+3,	110.049064E-9
1.559970E+3,	142.934247E-9
1.559974E+3,	171.871735E-9
1.559978E+3,	202.025121E-9
1.559982E+3,	235.446028E-9
1.559986E+3,	258.730636E-9
1.559990E+3,	269.497920E-9
1.559994E+3,	274.557473E-9
1.559998E+3,	271.098079E-9
1.560002E+3,	260.655017E-9
1.560006E+3,	237.598157E-9
1.560010E+3,	209.507119E-9
1.560014E+3,	182.923554E-9
1.560018E+3,	145.936701E-9
1.560022E+3,	104.259106E-9
1.560026E+3,	75.995749E-9
1.560030E+3,	60.397867E-9
1.560034E+3,	40.953986E-9
1.560038E+3,	31.204897E-9
1.560042E+3,	31.224127E-9
1.560046E+3,	40.793734E-9
1.560050E+3,	56.941102E-9
1.560054E+3,	75.109987E-9
1.560058E+3,	103.545099E-9
1.560062E+3,	133.192349E-9
1.560066E+3,	157.371648E-9
1.560070E+3,	186.443584E-9
1.560074E+3,	208.072411E-9
1.560078E+3,	223.164422E-9
1.560082E+3,	235.511394E-9
1.560086E+3,	240.038838E-9
1.560090E+3,	235.967680E-9
1.560094E+3,	227.212079E-9
1.560098E+3,	207.003826E-9
1.560102E+3,	182.651070E-9
1.560106E+3,	158.924660E-9
1.560110E+3,	125.773091E-9
1.560114E+3,	92.571696E-9
1.560118E+3,	67.340724E-9
1.560122E+3,	43.083678E-9
1.560126E+3,	27.489116E-9
1.560130E+3,	22.007022E-9
1.560134E+3,	22.827877E-9
1.560138E+3,	35.346286E-9
1.560142E+3,	56.764657E-9
1.560146E+3,	80.676291E-9
1.560150E+3,	118.568532E-9
1.560154E+3,	155.994786E-9
1.560158E+3,	186.587467E-9
1.560162E+3,	228.433221E-9
1.560166E+3,	257.151342E-9
1.560170E+3,	276.441394E-9
1.560174E+3,	291.555120E-9
1.560178E+3,	294.371621E-9
1.560182E+3,	288.869162E-9
1.560186E+3,	275.749804E-9
1.560190E+3,	250.802477E-9
1.560194E+3,	221.094486E-9
1.560198E+3,	192.821666E-9
1.560202E+3,	152.897830E-9
1.560206E+3,	118.373530E-9
1.560210E+3,	89.304693E-9
1.560214E+3,	60.356229E-9
1.560218E+3,	43.229161E-9
1.560222E+3,	35.870731E-9
1.560226E+3,	36.004760E-9
1.560230E+3,	45.003996E-9
1.560234E+3,	57.835842E-9
1.560238E+3,	77.158321E-9
1.560242E+3,	105.740097E-9
1.560246E+3,	134.918718E-9
1.560250E+3,	158.572452E-9
1.560254E+3,	187.808631E-9
1.560258E+3,	210.332402E-9
1.560262E+3,	227.507699E-9
1.560266E+3,	239.965412E-9
1.560270E+3,	244.732179E-9
1.560274E+3,	242.152277E-9
1.560278E+3,	230.685050E-9
1.560282E+3,	212.182865E-9
1.560286E+3,	192.111503E-9
1.560290E+3,	166.307976E-9
1.560294E+3,	132.641391E-9
1.560298E+3,	91.756024E-9
1.560302E+3,	75.187568E-9
1.560306E+3,	49.839931E-9
1.560310E+3,	36.615289E-9
1.560314E+3,	33.942950E-9
1.560318E+3,	41.379567E-9
1.560322E+3,	57.098833E-9
1.560326E+3,	77.657427E-9
1.560330E+3,	114.264214E-9
1.560334E+3,	152.133372E-9
1.560338E+3,	184.223185E-9
1.560342E+3,	220.739406E-9
1.560346E+3,	255.785473E-9
1.560350E+3,	282.385085E-9
1.560354E+3,	299.134702E-9
1.560358E+3,	309.901574E-9
1.560362E+3,	310.791570E-9
1.560366E+3,	303.159696E-9
1.560370E+3,	283.403908E-9
1.560374E+3,	258.701096E-9
1.560378E+3,	232.674200E-9
1.560382E+3,	192.632010E-9
1.560386E+3,	154.764445E-9
1.560390E+3,	125.729777E-9
1.560394E+3,	95.252348E-9
1.560398E+3,	67.119903E-9
1.560402E+3,	50.296774E-9
1.560406E+3,	42.837409E-9
1.560410E+3,	43.828342E-9
1.560414E+3,	55.220917E-9
1.560418E+3,	70.386413E-9
1.560422E+3,	96.640061E-9
1.560426E+3,	125.495038E-9
1.560430E+3,	152.968970E-9
1.560434E+3,	193.086509E-9
1.560438E+3,	228.965310E-9
1.560442E+3,	247.049563E-9
1.560446E+3,	264.746615E-9
1.560450E+3,	277.273296E-9
1.560454E+3,	280.063120E-9
1.560458E+3,	274.748894E-9
1.560462E+3,	258.195071E-9
1.560466E+3,	234.629639E-9
1.560470E+3,	209.225049E-9
1.560474E+3,	171.618972E-9
1.560478E+3,	134.650630E-9
1.560482E+3,	98.332206E-9
1.560486E+3,	73.311608E-9
1.560490E+3,	48.267330E-9
1.560494E+3,	35.494530E-9
1.560498E+3,	28.968820E-9
1.560502E+3,	33.582762E-9
1.560506E+3,	47.742495E-9
1.560510E+3,	67.552623E-9
1.560514E+3,	102.053348E-9
1.560518E+3,	138.901455E-9
1.560522E+3,	170.639734E-9
1.560526E+3,	215.070676E-9
1.560530E+3,	251.275103E-9
1.560534E+3,	272.899611E-9
1.560538E+3,	293.821523E-9
1.560542E+3,	302.985676E-9
1.560546E+3,	302.292408E-9
1.560550E+3,	290.532696E-9
1.560554E+3,	269.763075E-9
1.560558E+3,	246.541024E-9
1.560562E+3,	217.788907E-9
1.560566E+3,	179.551350E-9
1.560570E+3,	141.476311E-9
1.560574E+3,	100.246926E-9
1.560578E+3,	73.713553E-9
1.560582E+3,	48.846116E-9
1.560586E+3,	37.364338E-9
1.560590E+3,	30.743610E-9
1.560594E+3,	33.246661E-9
1.560598E+3,	42.895539E-9
1.560602E+3,	65.162553E-9
1.560606E+3,	91.601296E-9
1.560610E+3,	115.464316E-9
1.560614E+3,	143.736433E-9
1.560618E+3,	180.529617E-9
1.560622E+3,	214.658952E-9
1.560626E+3,	241.145032E-9
1.560630E+3,	266.053509E-9
1.560634E+3,	281.951288E-9
1.560638E+3,	287.173042E-9
1.560642E+3,	284.104158E-9
1.560646E+3,	271.816168E-9
1.560650E+3,	253.182287E-9
1.560654E+3,	218.863410E-9
1.560658E+3,	182.660157E-9
1.560662E+3,	151.414073E-9
1.560666E+3,	104.689932E-9
1.560670E+3,	68.227443E-9
1.560674E+3,	49.387708E-9
1.560678E+3,	33.660122E-9
1.560682E+3,	25.085066E-9
1.560686E+3,	29.131269E-9
1.560690E+3,	39.756393E-9
1.560694E+3,	62.789665E-9
1.560698E+3,	91.734910E-9
1.560702E+3,	120.657579E-9
1.560706E+3,	161.989434E-9
1.560710E+3,	201.458542E-9
1.560714E+3,	230.194640E-9
1.560718E+3,	248.031653E-9
1.560722E+3,	266.488765E-9
1.560726E+3,	275.657595E-9
1.560730E+3,	276.187217E-9
1.560734E+3,	267.892171E-9
1.560738E+3,	251.359021E-9
1.560742E+3,	231.813060E-9
1.560746E+3,	201.562378E-9
1.560750E+3,	171.296274E-9
1.560754E+3,	145.766198E-9
1.560758E+3,	104.542167E-9
1.560762E+3,	75.277621E-9
1.560766E+3,	52.895129E-9
1.560770E+3,	35.304668E-9
1.560774E+3,	22.983195E-9
1.560778E+3,	21.286383E-9
1.560782E+3,	28.195898E-9
1.560786E+3,	48.572599E-9
1.560790E+3,	75.767849E-9
1.560794E+3,	103.181171E-9
1.560798E+3,	144.784926E-9
1.560802E+3,	185.145682E-9
1.560806E+3,	220.054330E-9
1.560810E+3,	257.322113E-9
1.560814E+3,	283.962385E-9
1.560818E+3,	298.644976E-9
1.560822E+3,	305.873741E-9
1.560826E+3,	303.076533E-9
1.560830E+3,	290.702443E-9
1.560834E+3,	273.120225E-9
1.560838E+3,	238.833834E-9
1.560842E+3,	200.562777E-9
1.560846E+3,	167.106394E-9
1.560850E+3,	115.976165E-9
1.560854E+3,	77.894150E-9
1.560858E+3,	63.238369E-9
1.560862E+3,	40.492993E-9
1.560866E+3,	27.216496E-9
1.560870E+3,	25.133909E-9
1.560874E+3,	30.999036E-9
1.560878E+3,	48.404552E-9
1.560882E+3,	71.804791E-9
1.560886E+3,	95.973918E-9
1.560890E+3,	132.883656E-9
1.560894E+3,	169.767256E-9
1.560898E+3,	200.479272E-9
1.560902E+3,	237.512414E-9
1.560906E+3,	256.834477E-9
1.560910E+3,	270.032161E-9
1.560914E+3,	277.202624E-9
1.560918E+3,	274.976583E-9
1.560922E+3,	265.498834E-9
1.560926E+3,	247.621755E-9
1.560930E+3,	217.249962E-9
1.560934E+3,	184.322814E-9
1.560938E+3,	155.518401E-9
1.560942E+3,	108.682925E-9
1.560946E+3,	82.360568E-9
1.560950E+3,	57.523160E-9
1.560954E+3,	38.027677E-9
1.560958E+3,	29.470963E-9
1.560962E+3,	31.906334E-9
1.560966E+3,	45.601962E-9
1.560970E+3,	68.216066E-9
1.560974E+3,	95.126422E-9
1.560978E+3,	130.559667E-9
1.560982E+3,	175.686919E-9
1.560986E+3,	216.377786E-9
1.560990E+3,	246.271622E-9
1.560994E+3,	280.389583E-9
1.560998E+3,	307.041331E-9
1.561002E+3,	321.061422E-9
1.561006E+3,	327.780392E-9
1.561010E+3,	324.000854E-9
1.561014E+3,	311.797191E-9
1.561018E+3,	285.417792E-9
1.561022E+3,	253.843353E-9
1.561026E+3,	223.483047E-9
1.561030E+3,	177.942904E-9
1.561034E+3,	134.798987E-9
1.561038E+3,	96.597108E-9
1.561042E+3,	73.229537E-9
1.561046E+3,	47.568732E-9
1.561050E+3,	35.585962E-9
1.561054E+3,	34.618081E-9
1.561058E+3,	45.212603E-9
1.561062E+3,	64.550852E-9
1.561066E+3,	85.620996E-9
1.561070E+3,	118.316426E-9
1.561074E+3,	150.918246E-9
1.561078E+3,	178.393161E-9
1.561082E+3,	213.735958E-9
1.561086E+3,	241.755510E-9
1.561090E+3,	256.012793E-9
1.561094E+3,	268.356544E-9
1.561098E+3,	271.910771E-9
1.561102E+3,	268.764729E-9
1.561106E+3,	255.307705E-9
1.561110E+3,	235.576785E-9
1.561114E+3,	214.162750E-9
1.561118E+3,	187.444188E-9
1.561122E+3,	153.979502E-9
1.561126E+3,	123.303547E-9
1.561130E+3,	97.633156E-9
1.561134E+3,	69.364898E-9
1.561138E+3,	52.695454E-9
1.561142E+3,	45.664795E-9
1.561146E+3,	46.789459E-9
1.561150E+3,	58.347150E-9
1.561154E+3,	74.140777E-9
1.561158E+3,	103.960414E-9
1.561162E+3,	138.409448E-9
1.561166E+3,	170.884983E-9
1.561170E+3,	215.361044E-9
1.561174E+3,	250.102333E-9
1.561178E+3,	270.592724E-9
1.561182E+3,	291.950408E-9
1.561186E+3,	301.895314E-9
1.561190E+3,	302.386487E-9
1.561194E+3,	294.856799E-9
1.561198E+3,	274.023859E-9
1.561202E+3,	245.901893E-9
1.561206E+3,	217.666021E-9
1.561210E+3,	175.192676E-9
1.561214E+3,	134.857431E-9
1.561218E+3,	95.782487E-9
1.561222E+3,	67.545219E-9
1.561226E+3,	42.723936E-9
1.561230E+3,	29.875831E-9
1.561234E+3,	22.864424E-9
1.561238E+3,	26.420279E-9
1.561242E+3,	36.918363E-9
1.561246E+3,	59.562811E-9
1.561250E+3,	85.398130E-9
1.561254E+3,	109.386509E-9
1.561258E+3,	143.776182E-9
1.561262E+3,	175.835721E-9
1.561266E+3,	202.332803E-9
1.561270E+3,	230.977846E-9
1.561274E+3,	251.627941E-9
1.561278E+3,	266.098549E-9
1.561282E+3,	270.976490E-9
1.561286E+3,	268.334332E-9
1.561290E+3,	256.898292E-9
1.561294E+3,	239.771845E-9
1.561298E+3,	208.463921E-9
1.561302E+3,	174.380761E-9
1.561306E+3,	145.978741E-9
1.561310E+3,	104.717957E-9
1.561314E+3,	79.219703E-9
1.561318E+3,	59.176169E-9
1.561322E+3,	43.727572E-9
1.561326E+3,	39.384187E-9
1.561330E+3,	44.900659E-9
1.561334E+3,	63.061609E-9
1.561338E+3,	87.331784E-9
1.561342E+3,	112.313466E-9
1.561346E+3,	143.633975E-9
1.561350E+3,	183.223832E-9
1.561354E+3,	219.160183E-9
1.561358E+3,	244.819760E-9
1.561362E+3,	268.404659E-9
1.561366E+3,	283.851069E-9
1.561370E+3,	288.854343E-9
1.561374E+3,	285.809924E-9
1.561378E+3,	273.113549E-9
1.561382E+3,	254.853366E-9
1.561386E+3,	223.143828E-9
1.561390E+3,	190.035172E-9
1.561394E+3,	162.353822E-9
1.561398E+3,	112.579687E-9
1.561402E+3,	75.887702E-9
1.561406E+3,	58.960596E-9
1.561410E+3,	35.629600E-9
1.561414E+3,	22.809523E-9
1.561418E+3,	19.848090E-9
1.561422E+3,	23.614543E-9
1.561426E+3,	38.688893E-9
1.561430E+3,	61.708141E-9
1.561434E+3,	86.119131E-9
1.561438E+3,	124.892757E-9
1.561442E+3,	161.185830E-9
1.561446E+3,	188.651606E-9
1.561450E+3,	224.978357E-9
1.561454E+3,	252.309273E-9
1.561458E+3,	270.983150E-9
1.561462E+3,	286.590563E-9
1.561466E+3,	290.826243E-9
1.561470E+3,	287.023087E-9
1.561474E+3,	271.775451E-9
1.561478E+3,	248.548806E-9
1.561482E+3,	222.694653E-9
1.561486E+3,	182.894295E-9
1.561490E+3,	145.304000E-9
1.561494E+3,	104.737105E-9
1.561498E+3,	70.456979E-9
1.561502E+3,	50.841251E-9
1.561506E+3,	34.965327E-9
1.561510E+3,	24.854764E-9
1.561514E+3,	25.074612E-9
1.561518E+3,	34.852618E-9
1.561522E+3,	50.119908E-9
1.561526E+3,	78.616636E-9
1.561530E+3,	111.048870E-9
1.561534E+3,	140.116470E-9
1.561538E+3,	178.275143E-9
1.561542E+3,	209.233844E-9
1.561546E+3,	232.607937E-9
1.561550E+3,	256.197476E-9
1.561554E+3,	268.461745E-9
1.561558E+3,	271.076794E-9
1.561562E+3,	265.453598E-9
1.561566E+3,	251.065222E-9
1.561570E+3,	231.592311E-9
1.561574E+3,	200.019304E-9
1.561578E+3,	168.624900E-9
1.561582E+3,	141.566642E-9
1.561586E+3,	102.462668E-9
1.561590E+3,	77.574127E-9
1.561594E+3,	50.628328E-9
1.561598E+3,	35.269533E-9
1.561602E+3,	24.191208E-9
1.561606E+3,	23.139532E-9
1.561610E+3,	29.125110E-9
1.561614E+3,	46.650892E-9
1.561618E+3,	71.143786E-9
1.561622E+3,	95.764771E-9
1.561626E+3,	131.573134E-9
1.561630E+3,	166.248300E-9
1.561634E+3,	194.875588E-9
1.561638E+3,	232.371276E-9
1.561642E+3,	253.111356E-9
1.561646E+3,	265.229477E-9
1.561650E+3,	272.131847E-9
1.561654E+3,	268.925800E-9
1.561658E+3,	258.776975E-9
1.561662E+3,	240.545450E-9
1.561666E+3,	210.129326E-9
1.561670E+3,	176.657878E-9
1.561674E+3,	147.705543E-9
1.561678E+3,	103.784843E-9
1.561682E+3,	73.671878E-9
1.561686E+3,	52.113677E-9
1.561690E+3,	31.484045E-9
1.561694E+3,	21.273767E-9
1.561698E+3,	21.164148E-9
1.561702E+3,	32.359384E-9
1.561706E+3,	52.041822E-9
1.561710E+3,	73.433336E-9
1.561714E+3,	105.155569E-9
1.561718E+3,	136.730021E-9
1.561722E+3,	162.916580E-9
1.561726E+3,	198.573347E-9
1.561730E+3,	225.036592E-9
1.561734E+3,	234.515093E-9
1.561738E+3,	243.391958E-9
1.561742E+3,	245.306039E-9
1.561746E+3,	239.683395E-9
1.561750E+3,	228.877046E-9
1.561754E+3,	206.955398E-9
1.561758E+3,	180.603197E-9
1.561762E+3,	156.462858E-9
1.561766E+3,	124.027088E-9
1.561770E+3,	91.933748E-9
1.561774E+3,	68.715386E-9
1.561778E+3,	47.309009E-9
1.561782E+3,	33.231672E-9
1.561786E+3,	28.330314E-9
1.561790E+3,	30.810182E-9
1.561794E+3,	41.559361E-9
1.561798E+3,	56.413078E-9
1.561802E+3,	82.728660E-9
1.561806E+3,	112.489672E-9
1.561810E+3,	138.326923E-9
1.561814E+3,	165.504663E-9
1.561818E+3,	195.362178E-9
1.561822E+3,	221.118951E-9
1.561826E+3,	235.498488E-9
1.561830E+3,	246.819701E-9
1.561834E+3,	248.148042E-9
1.561838E+3,	241.483279E-9
1.561842E+3,	224.277700E-9
1.561846E+3,	202.132760E-9
1.561850E+3,	179.537775E-9
1.561854E+3,	145.012407E-9
1.561858E+3,	103.911954E-9
1.561862E+3,	72.759623E-9
1.561866E+3,	50.697325E-9
1.561870E+3,	31.620490E-9
1.561874E+3,	21.820705E-9
1.561878E+3,	19.726938E-9
1.561882E+3,	27.095748E-9
1.561886E+3,	40.434462E-9
1.561890E+3,	60.979583E-9
1.561894E+3,	92.023441E-9
1.561898E+3,	122.916549E-9
1.561902E+3,	147.894244E-9
1.561906E+3,	180.116087E-9
1.561910E+3,	205.321575E-9
1.561914E+3,	222.780913E-9
1.561918E+3,	233.634544E-9
1.561922E+3,	236.621291E-9
1.561926E+3,	232.998829E-9
1.561930E+3,	222.346452E-9
1.561934E+3,	206.366144E-9
1.561938E+3,	188.529889E-9
1.561942E+3,	159.799278E-9
1.561946E+3,	131.368914E-9
1.561950E+3,	100.307671E-9
1.561954E+3,	78.043175E-9
1.561958E+3,	52.661554E-9
1.561962E+3,	36.801206E-9
1.561966E+3,	23.910643E-9
1.561970E+3,	18.502556E-9
1.561974E+3,	21.668077E-9
1.561978E+3,	30.548242E-9
1.561982E+3,	50.159229E-9
1.561986E+3,	74.666508E-9
1.561990E+3,	99.324343E-9
1.561994E+3,	135.524330E-9
1.561998E+3,	167.976488E-9
1.562002E+3,	191.465558E-9
1.562006E+3,	215.105208E-9
1.562010E+3,	229.507608E-9
1.562014E+3,	233.789912E-9
1.562018E+3,	231.413475E-9
1.562022E+3,	221.426553E-9
1.562026E+3,	207.568828E-9
1.562030E+3,	180.980209E-9
1.562034E+3,	153.267336E-9
1.562038E+3,	128.626845E-9
1.562042E+3,	91.447730E-9
1.562046E+3,	62.097439E-9
1.562050E+3,	44.394125E-9
1.562054E+3,	26.832031E-9
1.562058E+3,	18.610284E-9
1.562062E+3,	17.419840E-9
1.562066E+3,	24.185391E-9
1.562070E+3,	37.198308E-9
1.562074E+3,	52.339473E-9
1.562078E+3,	76.735858E-9
1.562082E+3,	101.050990E-9
1.562086E+3,	121.064540E-9
1.562090E+3,	146.806436E-9
1.562094E+3,	169.222036E-9
1.562098E+3,	184.893224E-9
1.562102E+3,	199.414369E-9
1.562106E+3,	206.014418E-9
1.562110E+3,	205.631172E-9
1.562114E+3,	198.543180E-9
1.562118E+3,	185.758127E-9
1.562122E+3,	170.411666E-9
1.562126E+3,	144.232345E-9
1.562130E+3,	116.725940E-9
1.562134E+3,	94.787553E-9
1.562138E+3,	68.103119E-9
1.562142E+3,	46.935610E-9
1.562146E+3,	33.301937E-9
1.562150E+3,	22.707005E-9
1.562154E+3,	19.224920E-9
1.562158E+3,	24.366175E-9
1.562162E+3,	34.864622E-9
1.562166E+3,	55.125561E-9
1.562170E+3,	78.625207E-9
1.562174E+3,	100.933718E-9
1.562178E+3,	131.587066E-9
1.562182E+3,	158.317955E-9
1.562186E+3,	177.475287E-9
1.562190E+3,	197.427231E-9
1.562194E+3,	209.835256E-9
1.562198E+3,	214.514909E-9
1.562202E+3,	213.070975E-9
1.562206E+3,	204.617803E-9
1.562210E+3,	191.822073E-9
1.562214E+3,	169.470326E-9
1.562218E+3,	145.538611E-9
1.562222E+3,	125.332326E-9
1.562226E+3,	97.049341E-9
1.562230E+3,	70.813156E-9
1.562234E+3,	50.941260E-9
1.562238E+3,	30.571888E-9
1.562242E+3,	18.999987E-9
1.562246E+3,	14.879552E-9
1.562250E+3,	16.047437E-9
1.562254E+3,	23.062792E-9
1.562258E+3,	33.562919E-9
1.562262E+3,	52.464638E-9
1.562266E+3,	72.505154E-9
1.562270E+3,	89.525842E-9
1.562274E+3,	111.614329E-9
1.562278E+3,	130.110902E-9
1.562282E+3,	143.149048E-9
1.562286E+3,	156.819679E-9
1.562290E+3,	164.710377E-9
1.562294E+3,	166.546487E-9
1.562298E+3,	162.812469E-9
1.562302E+3,	154.000325E-9
1.562306E+3,	142.798474E-9
1.562310E+3,	123.465759E-9
1.562314E+3,	103.458384E-9
1.562318E+3,	86.424129E-9
1.562322E+3,	63.575635E-9
1.562326E+3,	45.036152E-9
1.562330E+3,	32.502772E-9
1.562334E+3,	20.893565E-9
1.562338E+3,	15.913645E-9
1.562342E+3,	17.267012E-9
1.562346E+3,	26.642704E-9
1.562350E+3,	41.304340E-9
1.562354E+3,	57.288360E-9
1.562358E+3,	82.033545E-9
1.562362E+3,	108.027044E-9
1.562366E+3,	130.493713E-9
1.562370E+3,	157.484677E-9
1.562374E+3,	177.403744E-9
1.562378E+3,	188.312044E-9
1.562382E+3,	196.678052E-9
1.562386E+3,	198.155615E-9
1.562390E+3,	193.174946E-9
1.562394E+3,	181.608205E-9
1.562398E+3,	160.684755E-9
1.562402E+3,	137.928206E-9
1.562406E+3,	117.737614E-9
1.562410E+3,	90.493485E-9
1.562414E+3,	66.425415E-9
1.562418E+3,	48.919108E-9
1.562422E+3,	30.392855E-9
1.562426E+3,	18.504030E-9
1.562430E+3,	13.498315E-9
1.562434E+3,	13.059023E-9
1.562438E+3,	18.006671E-9
1.562442E+3,	25.768696E-9
1.562446E+3,	40.862296E-9
1.562450E+3,	58.843679E-9
1.562454E+3,	76.484182E-9
1.562458E+3,	100.232174E-9
1.562462E+3,	120.091974E-9
1.562466E+3,	134.889897E-9
1.562470E+3,	152.162186E-9
1.562474E+3,	163.623231E-9
1.562478E+3,	168.318909E-9
1.562482E+3,	167.710912E-9
1.562486E+3,	160.759175E-9
1.562490E+3,	150.383905E-9
1.562494E+3,	130.499897E-9
1.562498E+3,	107.528802E-9
1.562502E+3,	87.438408E-9
1.562506E+3,	62.228913E-9
1.562510E+3,	42.049153E-9
1.562514E+3,	29.009935E-9
1.562518E+3,	17.547670E-9
1.562522E+3,	13.355270E-9
1.562526E+3,	15.499192E-9
1.562530E+3,	25.542201E-9
1.562534E+3,	40.232412E-9
1.562538E+3,	55.744840E-9
1.562542E+3,	78.426355E-9
1.562546E+3,	100.377904E-9
1.562550E+3,	118.103487E-9
1.562554E+3,	138.838095E-9
1.562558E+3,	153.624959E-9
1.562562E+3,	160.975087E-9
1.562566E+3,	165.087873E-9
1.562570E+3,	163.315995E-9
1.562574E+3,	157.361937E-9
1.562578E+3,	144.106193E-9
1.562582E+3,	128.151491E-9
1.562586E+3,	113.238262E-9
1.562590E+3,	92.568956E-9
1.562594E+3,	73.623117E-9
1.562598E+3,	58.472975E-9
1.562602E+3,	39.842633E-9
1.562606E+3,	26.144896E-9
1.562610E+3,	18.274189E-9
1.562614E+3,	11.722676E-9
1.562618E+3,	10.097071E-9
1.562622E+3,	12.459040E-9
1.562626E+3,	20.239521E-9
1.562630E+3,	31.338114E-9
1.562634E+3,	43.146547E-9
1.562638E+3,	61.205718E-9
1.562642E+3,	78.146378E-9
1.562646E+3,	90.372576E-9
1.562650E+3,	101.875369E-9
1.562654E+3,	112.080896E-9
1.562658E+3,	117.469554E-9
1.562662E+3,	117.733724E-9
1.562666E+3,	112.534176E-9
1.562670E+3,	103.878514E-9
1.562674E+3,	94.635496E-9
1.562678E+3,	79.731848E-9
1.562682E+3,	63.867893E-9
1.562686E+3,	50.536331E-9
1.562690E+3,	34.602090E-9
1.562694E+3,	22.739587E-9
1.562698E+3,	15.737500E-9
1.562702E+3,	9.940002E-9
1.562706E+3,	8.125783E-9
1.562710E+3,	9.693054E-9
1.562714E+3,	15.592481E-9
1.562718E+3,	23.815546E-9
1.562722E+3,	32.187328E-9
1.562726E+3,	44.004458E-9
1.562730E+3,	54.403245E-9
1.562734E+3,	62.140070E-9
1.562738E+3,	70.708932E-9
1.562742E+3,	75.989033E-9
1.562746E+3,	78.028678E-9
1.562750E+3,	77.760288E-9
1.562754E+3,	74.906911E-9
1.562758E+3,	70.658637E-9
1.562762E+3,	62.596264E-9
1.562766E+3,	53.825283E-9
1.562770E+3,	46.248356E-9
1.562774E+3,	36.142815E-9
1.562778E+3,	27.357399E-9
1.562782E+3,	20.950426E-9
1.562786E+3,	13.887708E-9
1.562790E+3,	8.749892E-9
1.562794E+3,	5.779459E-9
1.562798E+3,	3.767197E-9
1.562802E+3,	3.722993E-9
1.562806E+3,	4.924366E-9
1.562810E+3,	7.873724E-9
1.562814E+3,	11.615175E-9
1.562818E+3,	15.307976E-9
1.562822E+3,	20.580180E-9
1.562826E+3,	24.992304E-9
1.562830E+3,	27.886997E-9
1.562834E+3,	30.617389E-9
1.562838E+3,	31.911917E-9
1.562842E+3,	32.080793E-9
1.562846E+3,	30.886827E-9
1.562850E+3,	28.634301E-9
1.562854E+3,	26.068125E-9
1.562858E+3,	22.092895E-9
1.562862E+3,	18.178260E-9
1.562866E+3,	15.009157E-9
1.562870E+3,	10.951782E-9
1.562874E+3,	7.578955E-9
1.562878E+3,	5.248326E-9
1.562882E+3,	3.034419E-9
1.562886E+3,	1.734743E-9
1.562890E+3,	1.252995E-9
1.562894E+3,	1.186315E-9
1.562898E+3,	1.580091E-9
1.562902E+3,	2.261652E-9
1.562906E+3,	2.954262E-9
1.562910E+3,	3.870620E-9
1.562914E+3,	4.585780E-9
1.562918E+3,	4.988467E-9
1.562922E+3,	5.357751E-9
1.562926E+3,	5.521614E-9
1.562930E+3,	5.407953E-9
1.562934E+3,	5.125827E-9
1.562938E+3,	4.758797E-9
1.562942E+3,	4.383283E-9
1.562946E+3,	3.813934E-9
1.562950E+3,	3.262224E-9
1.562954E+3,	2.794971E-9
1.562958E+3,	2.215838E-9
1.562962E+3,	1.736221E-9
1.562966E+3,	1.423014E-9
1.562970E+3,	1.027538E-9
1.562974E+3,	736.510605E-12
1.562978E+3,	566.153772E-12
1.562982E+3,	355.525268E-12
1.562986E+3,	211.515956E-12
1.562990E+3,	158.899687E-12
1.562994E+3,	125.933546E-12
1.562998E+3,	138.596673E-12
1.563002E+3,	116.567940E-12
1.563006E+3,	232.198556E-12
1.563010E+3,	342.476640E-12
1.563014E+3,	425.883524E-12
1.563018E+3,	616.445975E-12
1.563022E+3,	803.817037E-12
1.563026E+3,	972.784972E-12
1.563030E+3,	1.169180E-9
1.563034E+3,	1.361675E-9
1.563038E+3,	1.471779E-9
1.563042E+3,	1.525991E-9
1.563046E+3,	1.525689E-9
1.563050E+3,	1.441371E-9
1.563054E+3,	1.305931E-9
1.563058E+3,	1.110309E-9
1.563062E+3,	966.577376E-12
1.563066E+3,	774.774353E-12
1.563070E+3,	617.060910E-12
1.563074E+3,	544.472013E-12
1.563078E+3,	505.276822E-12
1.563082E+3,	579.590309E-12
1.563086E+3,	722.092703E-12
1.563090E+3,	977.406881E-12
1.563094E+3,	1.247005E-9
1.563098E+3,	1.502079E-9
1.563102E+3,	1.842405E-9
1.563106E+3,	2.141886E-9
1.563110E+3,	2.336187E-9
1.563114E+3,	2.537412E-9
1.563118E+3,	2.668103E-9
1.563122E+3,	2.707038E-9
1.563126E+3,	2.639110E-9
1.563130E+3,	2.555228E-9
1.563134E+3,	2.437980E-9
1.563138E+3,	2.204181E-9
1.563142E+3,	1.970343E-9
1.563146E+3,	1.730932E-9
1.563150E+3,	1.426965E-9
1.563154E+3,	1.155044E-9
1.563158E+3,	922.507123E-12
1.563162E+3,	691.534789E-12
1.563166E+3,	564.173268E-12
1.563170E+3,	525.557596E-12
1.563174E+3,	618.171214E-12
1.563178E+3,	871.774373E-12
1.563182E+3,	1.168223E-9
1.563186E+3,	1.656659E-9
1.563190E+3,	2.241644E-9
1.563194E+3,	2.747831E-9
1.563198E+3,	3.477131E-9
1.563202E+3,	4.067607E-9
1.563206E+3,	4.495553E-9
1.563210E+3,	4.945406E-9
1.563214E+3,	5.127225E-9
1.563218E+3,	5.190060E-9
1.563222E+3,	5.004679E-9
1.563226E+3,	4.659917E-9
1.563230E+3,	4.251688E-9
1.563234E+3,	3.585040E-9
1.563238E+3,	2.930551E-9
1.563242E+3,	2.365562E-9
1.563246E+3,	1.707578E-9
1.563250E+3,	1.159110E-9
