YOKOGAWA AQ6370D - S/N: 91S206859
#Date: 20/10/2023 Time: 12:45:57,	
A_WL(nm),	A_I(mW)
1.547500E+3,	12.135607E-12
1.547504E+3,	16.684788E-12
1.547508E+3,	0.000000E+0
1.547512E+3,	11.191395E-12
1.547516E+3,	4.607003E-12
1.547520E+3,	0.000000E+0
1.547524E+3,	422.170260E-15
1.547528E+3,	1.310541E-12
1.547532E+3,	18.906077E-12
1.547536E+3,	0.000000E+0
1.547540E+3,	0.000000E+0
1.547544E+3,	14.920378E-12
1.547548E+3,	21.670544E-12
1.547552E+3,	14.454799E-12
1.547556E+3,	5.590871E-12
1.547560E+3,	0.000000E+0
1.547564E+3,	4.392642E-12
1.547568E+3,	0.000000E+0
1.547572E+3,	0.000000E+0
1.547576E+3,	16.304058E-12
1.547580E+3,	0.000000E+0
1.547584E+3,	186.480859E-15
1.547588E+3,	4.175083E-12
1.547592E+3,	30.481721E-12
1.547596E+3,	0.000000E+0
1.547600E+3,	7.523232E-12
1.547604E+3,	5.916926E-12
1.547608E+3,	20.206663E-12
1.547612E+3,	7.113781E-12
1.547616E+3,	14.874145E-12
1.547620E+3,	3.949844E-12
1.547624E+3,	14.784544E-12
1.547628E+3,	8.129296E-12
1.547632E+3,	6.116402E-12
1.547636E+3,	39.816314E-12
1.547640E+3,	25.425683E-12
1.547644E+3,	0.000000E+0
1.547648E+3,	0.000000E+0
1.547652E+3,	6.914306E-12
1.547656E+3,	17.114251E-12
1.547660E+3,	9.951305E-12
1.547664E+3,	10.142189E-12
1.547668E+3,	0.000000E+0
1.547672E+3,	9.580031E-12
1.547676E+3,	19.482360E-12
1.547680E+3,	23.901263E-12
1.547684E+3,	0.000000E+0
1.547688E+3,	0.000000E+0
1.547692E+3,	1.564722E-12
1.547696E+3,	6.604958E-12
1.547700E+3,	26.375150E-12
1.547704E+3,	9.979708E-12
1.547708E+3,	15.727520E-12
1.547712E+3,	20.320147E-12
1.547716E+3,	15.526672E-12
1.547720E+3,	12.567812E-12
1.547724E+3,	34.177855E-12
1.547728E+3,	21.027543E-12
1.547732E+3,	0.000000E+0
1.547736E+3,	19.281989E-12
1.547740E+3,	0.000000E+0
1.547744E+3,	0.000000E+0
1.547748E+3,	0.000000E+0
1.547752E+3,	730.718190E-15
1.547756E+3,	20.331882E-12
1.547760E+3,	6.768881E-12
1.547764E+3,	4.956955E-12
1.547768E+3,	17.490562E-12
1.547772E+3,	23.675745E-12
1.547776E+3,	12.304059E-12
1.547780E+3,	0.000000E+0
1.547784E+3,	12.683896E-12
1.547788E+3,	20.551592E-12
1.547792E+3,	9.618513E-12
1.547796E+3,	13.613898E-12
1.547800E+3,	7.975177E-12
1.547804E+3,	9.527822E-12
1.547808E+3,	29.044696E-12
1.547812E+3,	7.079143E-12
1.547816E+3,	24.467429E-12
1.547820E+3,	22.738278E-12
1.547824E+3,	32.244473E-12
1.547828E+3,	13.394378E-12
1.547832E+3,	26.130440E-12
1.547836E+3,	7.734970E-12
1.547840E+3,	7.985036E-12
1.547844E+3,	22.175365E-12
1.547848E+3,	6.500212E-12
1.547852E+3,	9.711442E-12
1.547856E+3,	22.411218E-12
1.547860E+3,	0.000000E+0
1.547864E+3,	19.472130E-12
1.547868E+3,	19.615815E-12
1.547872E+3,	12.704960E-12
1.547876E+3,	17.285125E-12
1.547880E+3,	10.589541E-12
1.547884E+3,	0.000000E+0
1.547888E+3,	11.779691E-12
1.547892E+3,	11.761548E-12
1.547896E+3,	10.987824E-12
1.547900E+3,	12.018408E-12
1.547904E+3,	38.285936E-12
1.547908E+3,	15.625910E-12
1.547912E+3,	22.302359E-12
1.547916E+3,	17.327039E-12
1.547920E+3,	15.089272E-12
1.547924E+3,	21.250092E-12
1.547928E+3,	8.350751E-12
1.547932E+3,	15.734765E-12
1.547936E+3,	23.991943E-12
1.547940E+3,	17.889251E-12
1.547944E+3,	0.000000E+0
1.547948E+3,	16.373521E-12
1.547952E+3,	6.763747E-12
1.547956E+3,	20.245372E-12
1.547960E+3,	26.227187E-12
1.547964E+3,	0.000000E+0
1.547968E+3,	6.465416E-12
1.547972E+3,	7.536071E-12
1.547976E+3,	28.526489E-12
1.547980E+3,	20.869134E-12
1.547984E+3,	16.899777E-12
1.547988E+3,	18.641861E-12
1.547992E+3,	7.118698E-12
1.547996E+3,	2.574547E-12
1.548000E+3,	27.585325E-12
1.548004E+3,	6.501709E-12
1.548008E+3,	3.688968E-12
1.548012E+3,	35.028348E-12
1.548016E+3,	12.402249E-12
1.548020E+3,	18.649976E-12
1.548024E+3,	21.913317E-12
1.548028E+3,	20.334188E-12
1.548032E+3,	0.000000E+0
1.548036E+3,	11.946824E-12
1.548040E+3,	19.655344E-12
1.548044E+3,	18.264986E-12
1.548048E+3,	2.727821E-12
1.548052E+3,	12.874172E-12
1.548056E+3,	30.533339E-12
1.548060E+3,	13.556644E-12
1.548064E+3,	0.000000E+0
1.548068E+3,	17.797162E-12
1.548072E+3,	11.418323E-12
1.548076E+3,	17.232442E-12
1.548080E+3,	28.308943E-12
1.548084E+3,	14.620022E-12
1.548088E+3,	7.103822E-12
1.548092E+3,	19.466360E-12
1.548096E+3,	7.921756E-12
1.548100E+3,	18.487055E-12
1.548104E+3,	241.203211E-15
1.548108E+3,	6.631789E-12
1.548112E+3,	0.000000E+0
1.548116E+3,	0.000000E+0
1.548120E+3,	913.151156E-15
1.548124E+3,	0.000000E+0
1.548128E+3,	14.605230E-12
1.548132E+3,	29.860653E-12
1.548136E+3,	20.361712E-12
1.548140E+3,	1.821114E-12
1.548144E+3,	0.000000E+0
1.548148E+3,	0.000000E+0
1.548152E+3,	7.908737E-12
1.548156E+3,	10.905520E-12
1.548160E+3,	13.588310E-12
1.548164E+3,	8.648993E-12
1.548168E+3,	31.737957E-12
1.548172E+3,	22.443340E-12
1.548176E+3,	6.289738E-12
1.548180E+3,	13.555114E-12
1.548184E+3,	2.457254E-12
1.548188E+3,	0.000000E+0
1.548192E+3,	0.000000E+0
1.548196E+3,	10.576310E-12
1.548200E+3,	1.966842E-12
1.548204E+3,	0.000000E+0
1.548208E+3,	0.000000E+0
1.548212E+3,	10.797905E-12
1.548216E+3,	4.382578E-12
1.548220E+3,	13.264499E-12
1.548224E+3,	13.373480E-12
1.548228E+3,	10.332656E-12
1.548232E+3,	0.000000E+0
1.548236E+3,	6.091344E-12
1.548240E+3,	4.983119E-12
1.548244E+3,	0.000000E+0
1.548248E+3,	0.000000E+0
1.548252E+3,	0.000000E+0
1.548256E+3,	17.482439E-12
1.548260E+3,	0.000000E+0
1.548264E+3,	9.323043E-12
1.548268E+3,	14.238089E-12
1.548272E+3,	25.803207E-12
1.548276E+3,	12.013988E-12
1.548280E+3,	11.180853E-12
1.548284E+3,	538.588567E-15
1.548288E+3,	27.738232E-12
1.548292E+3,	25.136792E-12
1.548296E+3,	3.981910E-12
1.548300E+3,	0.000000E+0
1.548304E+3,	7.520061E-12
1.548308E+3,	8.098913E-12
1.548312E+3,	223.254559E-15
1.548316E+3,	8.527766E-12
1.548320E+3,	12.870828E-12
1.548324E+3,	8.003992E-12
1.548328E+3,	7.240439E-12
1.548332E+3,	0.000000E+0
1.548336E+3,	24.706357E-12
1.548340E+3,	9.147713E-12
1.548344E+3,	0.000000E+0
1.548348E+3,	6.163027E-12
1.548352E+3,	19.508028E-12
1.548356E+3,	19.817020E-12
1.548360E+3,	16.088803E-12
1.548364E+3,	27.515032E-12
1.548368E+3,	26.214966E-12
1.548372E+3,	20.016953E-12
1.548376E+3,	20.559327E-12
1.548380E+3,	42.974888E-12
1.548384E+3,	29.089836E-12
1.548388E+3,	41.346912E-12
1.548392E+3,	42.492260E-12
1.548396E+3,	55.745617E-12
1.548400E+3,	35.897813E-12
1.548404E+3,	62.883146E-12
1.548408E+3,	81.506912E-12
1.548412E+3,	65.472003E-12
1.548416E+3,	87.397290E-12
1.548420E+3,	103.383012E-12
1.548424E+3,	107.965772E-12
1.548428E+3,	120.121614E-12
1.548432E+3,	114.394850E-12
1.548436E+3,	134.678582E-12
1.548440E+3,	120.709765E-12
1.548444E+3,	130.937366E-12
1.548448E+3,	137.260756E-12
1.548452E+3,	163.718997E-12
1.548456E+3,	161.009514E-12
1.548460E+3,	190.961323E-12
1.548464E+3,	206.186176E-12
1.548468E+3,	232.095077E-12
1.548472E+3,	222.981849E-12
1.548476E+3,	251.050212E-12
1.548480E+3,	262.758313E-12
1.548484E+3,	269.151947E-12
1.548488E+3,	291.694955E-12
1.548492E+3,	299.352280E-12
1.548496E+3,	329.088437E-12
1.548500E+3,	339.258953E-12
1.548504E+3,	368.777982E-12
1.548508E+3,	377.763168E-12
1.548512E+3,	376.198940E-12
1.548516E+3,	439.413735E-12
1.548520E+3,	463.140158E-12
1.548524E+3,	475.872193E-12
1.548528E+3,	526.381749E-12
1.548532E+3,	542.442236E-12
1.548536E+3,	583.544059E-12
1.548540E+3,	636.693478E-12
1.548544E+3,	659.892162E-12
1.548548E+3,	694.553669E-12
1.548552E+3,	740.213027E-12
1.548556E+3,	791.483510E-12
1.548560E+3,	846.451444E-12
1.548564E+3,	894.814917E-12
1.548568E+3,	929.908736E-12
1.548572E+3,	982.421184E-12
1.548576E+3,	1.027236E-9
1.548580E+3,	1.091606E-9
1.548584E+3,	1.101593E-9
1.548588E+3,	1.162503E-9
1.548592E+3,	1.211084E-9
1.548596E+3,	1.255460E-9
1.548600E+3,	1.305471E-9
1.548604E+3,	1.342647E-9
1.548608E+3,	1.394745E-9
1.548612E+3,	1.464703E-9
1.548616E+3,	1.565857E-9
1.548620E+3,	1.609705E-9
1.548624E+3,	1.684931E-9
1.548628E+3,	1.743744E-9
1.548632E+3,	1.828830E-9
1.548636E+3,	1.895448E-9
1.548640E+3,	1.985868E-9
1.548644E+3,	2.078258E-9
1.548648E+3,	2.156674E-9
1.548652E+3,	2.275074E-9
1.548656E+3,	2.390827E-9
1.548660E+3,	2.482528E-9
1.548664E+3,	2.546596E-9
1.548668E+3,	2.691829E-9
1.548672E+3,	2.837316E-9
1.548676E+3,	2.942015E-9
1.548680E+3,	3.032129E-9
1.548684E+3,	3.163378E-9
1.548688E+3,	3.283563E-9
1.548692E+3,	3.378819E-9
1.548696E+3,	3.497586E-9
1.548700E+3,	3.616016E-9
1.548704E+3,	3.738993E-9
1.548708E+3,	3.883141E-9
1.548712E+3,	4.006542E-9
1.548716E+3,	4.101534E-9
1.548720E+3,	4.246170E-9
1.548724E+3,	4.398644E-9
1.548728E+3,	4.552876E-9
1.548732E+3,	4.722255E-9
1.548736E+3,	4.841652E-9
1.548740E+3,	5.035939E-9
1.548744E+3,	5.184895E-9
1.548748E+3,	5.409675E-9
1.548752E+3,	5.624791E-9
1.548756E+3,	5.803045E-9
1.548760E+3,	6.014057E-9
1.548764E+3,	6.240195E-9
1.548768E+3,	6.459790E-9
1.548772E+3,	6.633745E-9
1.548776E+3,	6.817296E-9
1.548780E+3,	7.039743E-9
1.548784E+3,	7.294216E-9
1.548788E+3,	7.491843E-9
1.548792E+3,	7.651200E-9
1.548796E+3,	7.794181E-9
1.548800E+3,	8.011985E-9
1.548804E+3,	8.164110E-9
1.548808E+3,	8.339482E-9
1.548812E+3,	8.474269E-9
1.548816E+3,	8.631785E-9
1.548820E+3,	8.822535E-9
1.548824E+3,	9.050219E-9
1.548828E+3,	9.220692E-9
1.548832E+3,	9.385831E-9
1.548836E+3,	9.625141E-9
1.548840E+3,	9.886307E-9
1.548844E+3,	10.201041E-9
1.548848E+3,	10.538123E-9
1.548852E+3,	10.814422E-9
1.548856E+3,	11.150283E-9
1.548860E+3,	11.571812E-9
1.548864E+3,	11.995258E-9
1.548868E+3,	12.319906E-9
1.548872E+3,	12.705471E-9
1.548876E+3,	13.070394E-9
1.548880E+3,	13.478506E-9
1.548884E+3,	13.908343E-9
1.548888E+3,	14.244719E-9
1.548892E+3,	14.620865E-9
1.548896E+3,	14.965598E-9
1.548900E+3,	15.348603E-9
1.548904E+3,	15.671114E-9
1.548908E+3,	15.950093E-9
1.548912E+3,	16.243862E-9
1.548916E+3,	16.538241E-9
1.548920E+3,	16.876025E-9
1.548924E+3,	17.141158E-9
1.548928E+3,	17.344640E-9
1.548932E+3,	17.631143E-9
1.548936E+3,	17.920548E-9
1.548940E+3,	18.305373E-9
1.548944E+3,	18.697107E-9
1.548948E+3,	19.098552E-9
1.548952E+3,	19.521761E-9
1.548956E+3,	20.088857E-9
1.548960E+3,	20.666616E-9
1.548964E+3,	21.221266E-9
1.548968E+3,	21.876770E-9
1.548972E+3,	22.543580E-9
1.548976E+3,	23.405688E-9
1.548980E+3,	24.140238E-9
1.548984E+3,	24.778455E-9
1.548988E+3,	25.482276E-9
1.548992E+3,	26.212193E-9
1.548996E+3,	27.144789E-9
1.549000E+3,	27.894065E-9
1.549004E+3,	28.473789E-9
1.549008E+3,	29.081793E-9
1.549012E+3,	29.645732E-9
1.549016E+3,	30.303945E-9
1.549020E+3,	30.917855E-9
1.549024E+3,	31.330184E-9
1.549028E+3,	31.820699E-9
1.549032E+3,	32.309415E-9
1.549036E+3,	32.759560E-9
1.549040E+3,	33.069082E-9
1.549044E+3,	33.538864E-9
1.549048E+3,	33.950285E-9
1.549052E+3,	34.575710E-9
1.549056E+3,	35.141321E-9
1.549060E+3,	35.661080E-9
1.549064E+3,	36.335553E-9
1.549068E+3,	37.098214E-9
1.549072E+3,	38.085218E-9
1.549076E+3,	39.085742E-9
1.549080E+3,	39.985202E-9
1.549084E+3,	40.941262E-9
1.549088E+3,	42.071310E-9
1.549092E+3,	43.153327E-9
1.549096E+3,	44.061648E-9
1.549100E+3,	45.060248E-9
1.549104E+3,	45.914151E-9
1.549108E+3,	46.905977E-9
1.549112E+3,	47.694661E-9
1.549116E+3,	48.335162E-9
1.549120E+3,	48.964647E-9
1.549124E+3,	49.691297E-9
1.549128E+3,	50.298882E-9
1.549132E+3,	50.735602E-9
1.549136E+3,	51.159813E-9
1.549140E+3,	51.542222E-9
1.549144E+3,	52.027018E-9
1.549148E+3,	52.438366E-9
1.549152E+3,	52.795033E-9
1.549156E+3,	53.175835E-9
1.549160E+3,	53.659423E-9
1.549164E+3,	54.238805E-9
1.549168E+3,	54.825142E-9
1.549172E+3,	55.363029E-9
1.549176E+3,	56.112021E-9
1.549180E+3,	57.166856E-9
1.549184E+3,	58.193876E-9
1.549188E+3,	59.092016E-9
1.549192E+3,	60.143944E-9
1.549196E+3,	61.167296E-9
1.549200E+3,	62.362063E-9
1.549204E+3,	63.549846E-9
1.549208E+3,	64.408982E-9
1.549212E+3,	65.269896E-9
1.549216E+3,	66.025210E-9
1.549220E+3,	66.711858E-9
1.549224E+3,	67.184349E-9
1.549228E+3,	67.534345E-9
1.549232E+3,	67.793463E-9
1.549236E+3,	68.010774E-9
1.549240E+3,	68.080362E-9
1.549244E+3,	68.141839E-9
1.549248E+3,	68.096139E-9
1.549252E+3,	68.060392E-9
1.549256E+3,	68.039452E-9
1.549260E+3,	67.972820E-9
1.549264E+3,	67.925584E-9
1.549268E+3,	67.909115E-9
1.549272E+3,	68.058761E-9
1.549276E+3,	68.341895E-9
1.549280E+3,	68.679528E-9
1.549284E+3,	69.146209E-9
1.549288E+3,	69.816256E-9
1.549292E+3,	70.794379E-9
1.549296E+3,	71.832241E-9
1.549300E+3,	72.726665E-9
1.549304E+3,	73.738945E-9
1.549308E+3,	74.924964E-9
1.549312E+3,	76.342478E-9
1.549316E+3,	77.594627E-9
1.549320E+3,	78.514691E-9
1.549324E+3,	79.377537E-9
1.549328E+3,	80.235649E-9
1.549332E+3,	80.852301E-9
1.549336E+3,	81.213329E-9
1.549340E+3,	81.489278E-9
1.549344E+3,	81.512794E-9
1.549348E+3,	81.413964E-9
1.549352E+3,	81.186867E-9
1.549356E+3,	80.844000E-9
1.549360E+3,	80.484768E-9
1.549364E+3,	79.887619E-9
1.549368E+3,	79.246730E-9
1.549372E+3,	78.684779E-9
1.549376E+3,	78.257189E-9
1.549380E+3,	77.873496E-9
1.549384E+3,	77.582503E-9
1.549388E+3,	77.451072E-9
1.549392E+3,	77.473820E-9
1.549396E+3,	77.733102E-9
1.549400E+3,	78.186617E-9
1.549404E+3,	78.942691E-9
1.549408E+3,	79.844218E-9
1.549412E+3,	80.703274E-9
1.549416E+3,	81.841687E-9
1.549420E+3,	83.112382E-9
1.549424E+3,	84.602036E-9
1.549428E+3,	85.954353E-9
1.549432E+3,	87.046501E-9
1.549436E+3,	88.039710E-9
1.549440E+3,	89.043023E-9
1.549444E+3,	89.811237E-9
1.549448E+3,	90.267023E-9
1.549452E+3,	90.650803E-9
1.549456E+3,	90.748946E-9
1.549460E+3,	90.703000E-9
1.549464E+3,	90.523527E-9
1.549468E+3,	90.307655E-9
1.549472E+3,	89.950097E-9
1.549476E+3,	89.505132E-9
1.549480E+3,	89.143473E-9
1.549484E+3,	88.877431E-9
1.549488E+3,	88.604006E-9
1.549492E+3,	88.459414E-9
1.549496E+3,	88.576254E-9
1.549500E+3,	88.809415E-9
1.549504E+3,	89.230991E-9
1.549508E+3,	89.949109E-9
1.549512E+3,	90.837231E-9
1.549516E+3,	92.113164E-9
1.549520E+3,	93.516429E-9
1.549524E+3,	94.770520E-9
1.549528E+3,	96.301579E-9
1.549532E+3,	98.104158E-9
1.549536E+3,	99.729804E-9
1.549540E+3,	100.842273E-9
1.549544E+3,	101.896755E-9
1.549548E+3,	102.793763E-9
1.549552E+3,	103.579393E-9
1.549556E+3,	103.988847E-9
1.549560E+3,	103.943796E-9
1.549564E+3,	103.716180E-9
1.549568E+3,	103.200039E-9
1.549572E+3,	102.393059E-9
1.549576E+3,	101.358986E-9
1.549580E+3,	100.479609E-9
1.549584E+3,	99.481850E-9
1.549588E+3,	98.246392E-9
1.549592E+3,	97.205307E-9
1.549596E+3,	96.497231E-9
1.549600E+3,	95.747185E-9
1.549604E+3,	95.122365E-9
1.549608E+3,	94.725595E-9
1.549612E+3,	94.632189E-9
1.549616E+3,	94.780943E-9
1.549620E+3,	95.143446E-9
1.549624E+3,	95.862102E-9
1.549628E+3,	96.809761E-9
1.549632E+3,	97.800411E-9
1.549636E+3,	99.061973E-9
1.549640E+3,	100.404061E-9
1.549644E+3,	101.898786E-9
1.549648E+3,	103.140393E-9
1.549652E+3,	104.028308E-9
1.549656E+3,	105.006128E-9
1.549660E+3,	105.785171E-9
1.549664E+3,	106.284958E-9
1.549668E+3,	106.321488E-9
1.549672E+3,	106.060162E-9
1.549676E+3,	105.513900E-9
1.549680E+3,	104.448183E-9
1.549684E+3,	103.273081E-9
1.549688E+3,	102.076294E-9
1.549692E+3,	100.613061E-9
1.549696E+3,	99.296226E-9
1.549700E+3,	97.782872E-9
1.549704E+3,	96.501021E-9
1.549708E+3,	95.544226E-9
1.549712E+3,	94.724967E-9
1.549716E+3,	94.060779E-9
1.549720E+3,	93.526307E-9
1.549724E+3,	93.323243E-9
1.549728E+3,	93.375819E-9
1.549732E+3,	93.712918E-9
1.549736E+3,	94.354390E-9
1.549740E+3,	95.263963E-9
1.549744E+3,	96.117518E-9
1.549748E+3,	97.147092E-9
1.549752E+3,	98.213444E-9
1.549756E+3,	99.477899E-9
1.549760E+3,	100.596862E-9
1.549764E+3,	101.392201E-9
1.549768E+3,	102.169306E-9
1.549772E+3,	102.755867E-9
1.549776E+3,	103.006573E-9
1.549780E+3,	102.881324E-9
1.549784E+3,	102.505096E-9
1.549788E+3,	101.880347E-9
1.549792E+3,	100.740520E-9
1.549796E+3,	99.421318E-9
1.549800E+3,	98.138845E-9
1.549804E+3,	96.565671E-9
1.549808E+3,	94.903870E-9
1.549812E+3,	92.917708E-9
1.549816E+3,	91.098228E-9
1.549820E+3,	89.769415E-9
1.549824E+3,	88.281106E-9
1.549828E+3,	86.804766E-9
1.549832E+3,	85.812163E-9
1.549836E+3,	85.167844E-9
1.549840E+3,	84.675750E-9
1.549844E+3,	84.364077E-9
1.549848E+3,	84.320592E-9
1.549852E+3,	84.552043E-9
1.549856E+3,	84.881096E-9
1.549860E+3,	85.462080E-9
1.549864E+3,	86.148295E-9
1.549868E+3,	87.026763E-9
1.549872E+3,	87.924899E-9
1.549876E+3,	88.653101E-9
1.549880E+3,	89.420060E-9
1.549884E+3,	90.008071E-9
1.549888E+3,	90.413800E-9
1.549892E+3,	90.594966E-9
1.549896E+3,	90.536866E-9
1.549900E+3,	90.167629E-9
1.549904E+3,	89.391058E-9
1.549908E+3,	88.432849E-9
1.549912E+3,	87.438561E-9
1.549916E+3,	86.226709E-9
1.549920E+3,	84.628191E-9
1.549924E+3,	83.087705E-9
1.549928E+3,	81.846542E-9
1.549932E+3,	80.558244E-9
1.549936E+3,	79.450292E-9
1.549940E+3,	78.394692E-9
1.549944E+3,	77.681991E-9
1.549948E+3,	77.281713E-9
1.549952E+3,	77.024164E-9
1.549956E+3,	77.000860E-9
1.549960E+3,	77.335486E-9
1.549964E+3,	77.884967E-9
1.549968E+3,	78.547231E-9
1.549972E+3,	79.344468E-9
1.549976E+3,	80.435016E-9
1.549980E+3,	81.588597E-9
1.549984E+3,	82.538507E-9
1.549988E+3,	83.540030E-9
1.549992E+3,	84.523208E-9
1.549996E+3,	85.519952E-9
1.550000E+3,	86.053755E-9
1.550004E+3,	86.375610E-9
1.550008E+3,	86.395049E-9
1.550012E+3,	86.111322E-9
1.550016E+3,	85.601930E-9
1.550020E+3,	85.009770E-9
1.550024E+3,	84.128609E-9
1.550028E+3,	83.038201E-9
1.550032E+3,	81.506153E-9
1.550036E+3,	80.190259E-9
1.550040E+3,	79.043540E-9
1.550044E+3,	77.847685E-9
1.550048E+3,	76.611713E-9
1.550052E+3,	75.753527E-9
1.550056E+3,	75.318887E-9
1.550060E+3,	75.012314E-9
1.550064E+3,	75.059518E-9
1.550068E+3,	75.515366E-9
1.550072E+3,	76.299888E-9
1.550076E+3,	77.117918E-9
1.550080E+3,	78.208030E-9
1.550084E+3,	79.812266E-9
1.550088E+3,	81.408687E-9
1.550092E+3,	82.801485E-9
1.550096E+3,	84.341570E-9
1.550100E+3,	85.862275E-9
1.550104E+3,	87.355508E-9
1.550108E+3,	88.605018E-9
1.550112E+3,	89.514201E-9
1.550116E+3,	90.233590E-9
1.550120E+3,	90.772261E-9
1.550124E+3,	90.799078E-9
1.550128E+3,	90.609962E-9
1.550132E+3,	90.103041E-9
1.550136E+3,	89.299785E-9
1.550140E+3,	88.257211E-9
1.550144E+3,	87.159295E-9
1.550148E+3,	86.116314E-9
1.550152E+3,	84.931097E-9
1.550156E+3,	83.627618E-9
1.550160E+3,	82.553765E-9
1.550164E+3,	81.806385E-9
1.550168E+3,	81.277373E-9
1.550172E+3,	81.019730E-9
1.550176E+3,	81.069216E-9
1.550180E+3,	81.439550E-9
1.550184E+3,	81.965617E-9
1.550188E+3,	82.721904E-9
1.550192E+3,	83.838400E-9
1.550196E+3,	85.070589E-9
1.550200E+3,	86.103900E-9
1.550204E+3,	87.182481E-9
1.550208E+3,	88.335957E-9
1.550212E+3,	89.300298E-9
1.550216E+3,	90.093933E-9
1.550220E+3,	90.738352E-9
1.550224E+3,	91.063400E-9
1.550228E+3,	91.132171E-9
1.550232E+3,	90.874712E-9
1.550236E+3,	90.423629E-9
1.550240E+3,	89.687679E-9
1.550244E+3,	88.564201E-9
1.550248E+3,	87.228700E-9
1.550252E+3,	85.934222E-9
1.550256E+3,	84.468999E-9
1.550260E+3,	83.109464E-9
1.550264E+3,	81.542754E-9
1.550268E+3,	80.202405E-9
1.550272E+3,	79.297995E-9
1.550276E+3,	78.535207E-9
1.550280E+3,	77.952318E-9
1.550284E+3,	77.698186E-9
1.550288E+3,	77.837692E-9
1.550292E+3,	78.178886E-9
1.550296E+3,	78.787358E-9
1.550300E+3,	79.812736E-9
1.550304E+3,	80.872947E-9
1.550308E+3,	81.880330E-9
1.550312E+3,	83.039412E-9
1.550316E+3,	84.365226E-9
1.550320E+3,	85.446197E-9
1.550324E+3,	86.285257E-9
1.550328E+3,	86.989867E-9
1.550332E+3,	87.542924E-9
1.550336E+3,	87.896355E-9
1.550340E+3,	87.882430E-9
1.550344E+3,	87.566228E-9
1.550348E+3,	87.050225E-9
1.550352E+3,	86.048507E-9
1.550356E+3,	84.848521E-9
1.550360E+3,	83.647537E-9
1.550364E+3,	82.212983E-9
1.550368E+3,	80.750954E-9
1.550372E+3,	78.943035E-9
1.550376E+3,	77.348170E-9
1.550380E+3,	76.167159E-9
1.550384E+3,	74.942957E-9
1.550388E+3,	73.837644E-9
1.550392E+3,	73.052618E-9
1.550396E+3,	72.759461E-9
1.550400E+3,	72.593952E-9
1.550404E+3,	72.705618E-9
1.550408E+3,	73.256052E-9
1.550412E+3,	73.965540E-9
1.550416E+3,	74.774371E-9
1.550420E+3,	75.821893E-9
1.550424E+3,	77.243401E-9
1.550428E+3,	78.643845E-9
1.550432E+3,	79.749205E-9
1.550436E+3,	80.981391E-9
1.550440E+3,	82.013922E-9
1.550444E+3,	83.038262E-9
1.550448E+3,	83.794105E-9
1.550452E+3,	84.206375E-9
1.550456E+3,	84.447216E-9
1.550460E+3,	84.410353E-9
1.550464E+3,	84.168594E-9
1.550468E+3,	83.800645E-9
1.550472E+3,	83.164416E-9
1.550476E+3,	82.159702E-9
1.550480E+3,	81.100102E-9
1.550484E+3,	80.095100E-9
1.550488E+3,	78.985417E-9
1.550492E+3,	77.902677E-9
1.550496E+3,	76.779733E-9
1.550500E+3,	76.001792E-9
1.550504E+3,	75.554905E-9
1.550508E+3,	75.231404E-9
1.550512E+3,	75.146440E-9
1.550516E+3,	75.396096E-9
1.550520E+3,	75.872868E-9
1.550524E+3,	76.613201E-9
1.550528E+3,	77.548761E-9
1.550532E+3,	78.800126E-9
1.550536E+3,	80.148505E-9
1.550540E+3,	81.286202E-9
1.550544E+3,	82.450976E-9
1.550548E+3,	83.649776E-9
1.550552E+3,	84.681791E-9
1.550556E+3,	85.282510E-9
1.550560E+3,	85.766731E-9
1.550564E+3,	85.972626E-9
1.550568E+3,	85.998160E-9
1.550572E+3,	85.744730E-9
1.550576E+3,	85.369013E-9
1.550580E+3,	84.786849E-9
1.550584E+3,	83.937832E-9
1.550588E+3,	82.935589E-9
1.550592E+3,	82.064906E-9
1.550596E+3,	81.032544E-9
1.550600E+3,	80.159965E-9
1.550604E+3,	79.178930E-9
1.550608E+3,	78.335747E-9
1.550612E+3,	77.819677E-9
1.550616E+3,	77.423546E-9
1.550620E+3,	77.307756E-9
1.550624E+3,	77.516233E-9
1.550628E+3,	77.907126E-9
1.550632E+3,	78.562816E-9
1.550636E+3,	79.299742E-9
1.550640E+3,	80.314290E-9
1.550644E+3,	81.493215E-9
1.550648E+3,	82.469188E-9
1.550652E+3,	83.573505E-9
1.550656E+3,	84.739523E-9
1.550660E+3,	85.698328E-9
1.550664E+3,	86.291693E-9
1.550668E+3,	86.950081E-9
1.550672E+3,	87.316157E-9
1.550676E+3,	87.585949E-9
1.550680E+3,	87.594883E-9
1.550684E+3,	87.377696E-9
1.550688E+3,	86.933244E-9
1.550692E+3,	86.169218E-9
1.550696E+3,	85.331007E-9
1.550700E+3,	84.468330E-9
1.550704E+3,	83.583953E-9
1.550708E+3,	82.465312E-9
1.550712E+3,	81.517244E-9
1.550716E+3,	80.795314E-9
1.550720E+3,	80.173322E-9
1.550724E+3,	79.693509E-9
1.550728E+3,	79.409544E-9
1.550732E+3,	79.395091E-9
1.550736E+3,	79.611902E-9
1.550740E+3,	79.977084E-9
1.550744E+3,	80.562082E-9
1.550748E+3,	81.339812E-9
1.550752E+3,	82.092797E-9
1.550756E+3,	83.059444E-9
1.550760E+3,	84.041547E-9
1.550764E+3,	85.057547E-9
1.550768E+3,	85.897711E-9
1.550772E+3,	86.582759E-9
1.550776E+3,	87.198869E-9
1.550780E+3,	87.714593E-9
1.550784E+3,	87.868541E-9
1.550788E+3,	87.855917E-9
1.550792E+3,	87.608455E-9
1.550796E+3,	87.087883E-9
1.550800E+3,	86.288352E-9
1.550804E+3,	85.359034E-9
1.550808E+3,	84.554407E-9
1.550812E+3,	83.516099E-9
1.550816E+3,	82.341224E-9
1.550820E+3,	81.309139E-9
1.550824E+3,	80.495028E-9
1.550828E+3,	79.708565E-9
1.550832E+3,	79.047653E-9
1.550836E+3,	78.523960E-9
1.550840E+3,	78.201934E-9
1.550844E+3,	78.146632E-9
1.550848E+3,	78.319012E-9
1.550852E+3,	78.760340E-9
1.550856E+3,	79.494342E-9
1.550860E+3,	80.239323E-9
1.550864E+3,	81.183683E-9
1.550868E+3,	82.073813E-9
1.550872E+3,	83.144428E-9
1.550876E+3,	84.038999E-9
1.550880E+3,	84.785981E-9
1.550884E+3,	85.332513E-9
1.550888E+3,	85.687364E-9
1.550892E+3,	85.698970E-9
1.550896E+3,	85.475398E-9
1.550900E+3,	85.022299E-9
1.550904E+3,	84.316085E-9
1.550908E+3,	83.213904E-9
1.550912E+3,	81.999212E-9
1.550916E+3,	80.795934E-9
1.550920E+3,	79.331057E-9
1.550924E+3,	77.570133E-9
1.550928E+3,	76.023264E-9
1.550932E+3,	74.811334E-9
1.550936E+3,	73.550108E-9
1.550940E+3,	72.452200E-9
1.550944E+3,	71.478153E-9
1.550948E+3,	70.898176E-9
1.550952E+3,	70.727222E-9
1.550956E+3,	70.840178E-9
1.550960E+3,	71.341576E-9
1.550964E+3,	72.081016E-9
1.550968E+3,	73.031110E-9
1.550972E+3,	74.240022E-9
1.550976E+3,	75.797598E-9
1.550980E+3,	77.272443E-9
1.550984E+3,	78.588486E-9
1.550988E+3,	79.919284E-9
1.550992E+3,	81.199831E-9
1.550996E+3,	82.417812E-9
1.551000E+3,	83.299178E-9
1.551004E+3,	83.799711E-9
1.551008E+3,	84.066045E-9
1.551012E+3,	83.971113E-9
1.551016E+3,	83.520720E-9
1.551020E+3,	82.817546E-9
1.551024E+3,	81.875574E-9
1.551028E+3,	80.429689E-9
1.551032E+3,	79.019878E-9
1.551036E+3,	77.866926E-9
1.551040E+3,	76.481986E-9
1.551044E+3,	75.055279E-9
1.551048E+3,	73.572183E-9
1.551052E+3,	72.570285E-9
1.551056E+3,	71.905866E-9
1.551060E+3,	71.326487E-9
1.551064E+3,	70.915924E-9
1.551068E+3,	70.886264E-9
1.551072E+3,	71.075867E-9
1.551076E+3,	71.500852E-9
1.551080E+3,	72.354810E-9
1.551084E+3,	73.358333E-9
1.551088E+3,	74.329690E-9
1.551092E+3,	75.392374E-9
1.551096E+3,	76.664240E-9
1.551100E+3,	78.099221E-9
1.551104E+3,	79.242331E-9
1.551108E+3,	79.900408E-9
1.551112E+3,	80.468763E-9
1.551116E+3,	80.833039E-9
1.551120E+3,	80.769692E-9
1.551124E+3,	80.488738E-9
1.551128E+3,	79.889867E-9
1.551132E+3,	78.868732E-9
1.551136E+3,	77.692103E-9
1.551140E+3,	76.623697E-9
1.551144E+3,	75.247553E-9
1.551148E+3,	73.883351E-9
1.551152E+3,	72.318770E-9
1.551156E+3,	70.974624E-9
1.551160E+3,	69.952857E-9
1.551164E+3,	69.007531E-9
1.551168E+3,	68.213910E-9
1.551172E+3,	67.790563E-9
1.551176E+3,	67.722035E-9
1.551180E+3,	67.929430E-9
1.551184E+3,	68.612029E-9
1.551188E+3,	69.511451E-9
1.551192E+3,	70.559451E-9
1.551196E+3,	71.953857E-9
1.551200E+3,	73.494524E-9
1.551204E+3,	75.441842E-9
1.551208E+3,	77.297663E-9
1.551212E+3,	78.839677E-9
1.551216E+3,	80.371836E-9
1.551220E+3,	81.901279E-9
1.551224E+3,	82.985065E-9
1.551228E+3,	83.703305E-9
1.551232E+3,	84.231415E-9
1.551236E+3,	84.459703E-9
1.551240E+3,	84.314596E-9
1.551244E+3,	83.810172E-9
1.551248E+3,	83.009656E-9
1.551252E+3,	81.816050E-9
1.551256E+3,	80.519892E-9
1.551260E+3,	79.191922E-9
1.551264E+3,	77.761128E-9
1.551268E+3,	76.428631E-9
1.551272E+3,	74.975545E-9
1.551276E+3,	73.706671E-9
1.551280E+3,	72.785831E-9
1.551284E+3,	71.928935E-9
1.551288E+3,	71.241507E-9
1.551292E+3,	70.895374E-9
1.551296E+3,	70.841686E-9
1.551300E+3,	70.961490E-9
1.551304E+3,	71.377578E-9
1.551308E+3,	71.943927E-9
1.551312E+3,	72.620333E-9
1.551316E+3,	73.430835E-9
1.551320E+3,	74.263154E-9
1.551324E+3,	75.344987E-9
1.551328E+3,	76.367380E-9
1.551332E+3,	77.038239E-9
1.551336E+3,	77.651750E-9
1.551340E+3,	78.146961E-9
1.551344E+3,	78.358010E-9
1.551348E+3,	78.275641E-9
1.551352E+3,	78.029582E-9
1.551356E+3,	77.453236E-9
1.551360E+3,	76.629333E-9
1.551364E+3,	75.837353E-9
1.551368E+3,	74.833465E-9
1.551372E+3,	73.857438E-9
1.551376E+3,	72.588056E-9
1.551380E+3,	71.554049E-9
1.551384E+3,	70.853546E-9
1.551388E+3,	70.113028E-9
1.551392E+3,	69.348130E-9
1.551396E+3,	68.862786E-9
1.551400E+3,	68.697368E-9
1.551404E+3,	68.625658E-9
1.551408E+3,	68.757951E-9
1.551412E+3,	69.158798E-9
1.551416E+3,	69.605774E-9
1.551420E+3,	70.236318E-9
1.551424E+3,	70.947463E-9
1.551428E+3,	71.861272E-9
1.551432E+3,	72.705736E-9
1.551436E+3,	73.362399E-9
1.551440E+3,	74.102909E-9
1.551444E+3,	74.718718E-9
1.551448E+3,	75.121040E-9
1.551452E+3,	75.229251E-9
1.551456E+3,	75.238661E-9
1.551460E+3,	74.951674E-9
1.551464E+3,	74.382447E-9
1.551468E+3,	73.745985E-9
1.551472E+3,	72.857056E-9
1.551476E+3,	71.724344E-9
1.551480E+3,	70.553175E-9
1.551484E+3,	69.538153E-9
1.551488E+3,	68.573455E-9
1.551492E+3,	67.573749E-9
1.551496E+3,	66.438150E-9
1.551500E+3,	65.535261E-9
1.551504E+3,	65.012418E-9
1.551508E+3,	64.690967E-9
1.551512E+3,	64.563767E-9
1.551516E+3,	64.674813E-9
1.551520E+3,	65.052691E-9
1.551524E+3,	65.594465E-9
1.551528E+3,	66.520100E-9
1.551532E+3,	67.501975E-9
1.551536E+3,	68.352939E-9
1.551540E+3,	69.260224E-9
1.551544E+3,	70.190270E-9
1.551548E+3,	71.363939E-9
1.551552E+3,	72.305198E-9
1.551556E+3,	73.041798E-9
1.551560E+3,	73.684880E-9
1.551564E+3,	74.155546E-9
1.551568E+3,	74.352617E-9
1.551572E+3,	74.320519E-9
1.551576E+3,	73.990757E-9
1.551580E+3,	73.279092E-9
1.551584E+3,	72.373123E-9
1.551588E+3,	71.562566E-9
1.551592E+3,	70.639489E-9
1.551596E+3,	69.615750E-9
1.551600E+3,	68.202955E-9
1.551604E+3,	67.067090E-9
1.551608E+3,	66.249294E-9
1.551612E+3,	65.407516E-9
1.551616E+3,	64.709317E-9
1.551620E+3,	64.309533E-9
1.551624E+3,	64.066677E-9
1.551628E+3,	64.035695E-9
1.551632E+3,	64.242755E-9
1.551636E+3,	64.663105E-9
1.551640E+3,	65.152880E-9
1.551644E+3,	65.728666E-9
1.551648E+3,	66.390187E-9
1.551652E+3,	67.252975E-9
1.551656E+3,	68.036010E-9
1.551660E+3,	68.694009E-9
1.551664E+3,	69.310573E-9
1.551668E+3,	69.895833E-9
1.551672E+3,	70.255709E-9
1.551676E+3,	70.348653E-9
1.551680E+3,	70.338254E-9
1.551684E+3,	70.055161E-9
1.551688E+3,	69.550922E-9
1.551692E+3,	69.016015E-9
1.551696E+3,	68.439149E-9
1.551700E+3,	67.663846E-9
1.551704E+3,	66.603881E-9
1.551708E+3,	65.624021E-9
1.551712E+3,	64.897954E-9
1.551716E+3,	64.148561E-9
1.551720E+3,	63.404828E-9
1.551724E+3,	62.964418E-9
1.551728E+3,	62.795481E-9
1.551732E+3,	62.748339E-9
1.551736E+3,	63.002553E-9
1.551740E+3,	63.507760E-9
1.551744E+3,	64.118223E-9
1.551748E+3,	64.881907E-9
1.551752E+3,	65.879396E-9
1.551756E+3,	66.888793E-9
1.551760E+3,	67.766269E-9
1.551764E+3,	68.733870E-9
1.551768E+3,	69.655112E-9
1.551772E+3,	70.615410E-9
1.551776E+3,	71.277877E-9
1.551780E+3,	71.653583E-9
1.551784E+3,	71.949294E-9
1.551788E+3,	72.097582E-9
1.551792E+3,	71.966173E-9
1.551796E+3,	71.671409E-9
1.551800E+3,	71.153666E-9
1.551804E+3,	70.356538E-9
1.551808E+3,	69.442752E-9
1.551812E+3,	68.572531E-9
1.551816E+3,	67.540533E-9
1.551820E+3,	66.453130E-9
1.551824E+3,	65.268956E-9
1.551828E+3,	64.285662E-9
1.551832E+3,	63.751287E-9
1.551836E+3,	63.248285E-9
1.551840E+3,	62.949155E-9
1.551844E+3,	62.908490E-9
1.551848E+3,	63.151345E-9
1.551852E+3,	63.640696E-9
1.551856E+3,	64.335319E-9
1.551860E+3,	65.161720E-9
1.551864E+3,	65.932455E-9
1.551868E+3,	66.838544E-9
1.551872E+3,	67.837861E-9
1.551876E+3,	68.890339E-9
1.551880E+3,	69.761443E-9
1.551884E+3,	70.354121E-9
1.551888E+3,	70.882822E-9
1.551892E+3,	71.232372E-9
1.551896E+3,	71.333634E-9
1.551900E+3,	71.215316E-9
1.551904E+3,	70.859094E-9
1.551908E+3,	70.127057E-9
1.551912E+3,	69.265067E-9
1.551916E+3,	68.452315E-9
1.551920E+3,	67.419887E-9
1.551924E+3,	66.189337E-9
1.551928E+3,	64.693224E-9
1.551932E+3,	63.411115E-9
1.551936E+3,	62.412700E-9
1.551940E+3,	61.388972E-9
1.551944E+3,	60.348718E-9
1.551948E+3,	59.570462E-9
1.551952E+3,	59.188207E-9
1.551956E+3,	58.961786E-9
1.551960E+3,	59.018650E-9
1.551964E+3,	59.341916E-9
1.551968E+3,	59.784194E-9
1.551972E+3,	60.424278E-9
1.551976E+3,	61.375918E-9
1.551980E+3,	62.258302E-9
1.551984E+3,	63.047913E-9
1.551988E+3,	63.831537E-9
1.551992E+3,	64.550784E-9
1.551996E+3,	65.212914E-9
1.552000E+3,	65.588919E-9
1.552004E+3,	65.761871E-9
1.552008E+3,	65.771814E-9
1.552012E+3,	65.472819E-9
1.552016E+3,	64.940933E-9
1.552020E+3,	64.398224E-9
1.552024E+3,	63.603906E-9
1.552028E+3,	62.305628E-9
1.552032E+3,	60.995366E-9
1.552036E+3,	59.924769E-9
1.552040E+3,	58.679068E-9
1.552044E+3,	57.151124E-9
1.552048E+3,	55.886452E-9
1.552052E+3,	54.966036E-9
1.552056E+3,	54.059159E-9
1.552060E+3,	53.179525E-9
1.552064E+3,	52.727669E-9
1.552068E+3,	52.605646E-9
1.552072E+3,	52.720805E-9
1.552076E+3,	53.058682E-9
1.552080E+3,	53.806966E-9
1.552084E+3,	54.735043E-9
1.552088E+3,	55.668200E-9
1.552092E+3,	56.769123E-9
1.552096E+3,	58.039853E-9
1.552100E+3,	59.209169E-9
1.552104E+3,	60.057475E-9
1.552108E+3,	60.879647E-9
1.552112E+3,	61.699573E-9
1.552116E+3,	62.293074E-9
1.552120E+3,	62.636851E-9
1.552124E+3,	62.797375E-9
1.552128E+3,	62.778464E-9
1.552132E+3,	62.527780E-9
1.552136E+3,	62.136816E-9
1.552140E+3,	61.586786E-9
1.552144E+3,	60.776920E-9
1.552148E+3,	59.959111E-9
1.552152E+3,	59.267452E-9
1.552156E+3,	58.470116E-9
1.552160E+3,	57.538078E-9
1.552164E+3,	56.727042E-9
1.552168E+3,	56.295782E-9
1.552172E+3,	55.916365E-9
1.552176E+3,	55.763140E-9
1.552180E+3,	55.821123E-9
1.552184E+3,	56.144427E-9
1.552188E+3,	56.609969E-9
1.552192E+3,	57.304705E-9
1.552196E+3,	58.423789E-9
1.552200E+3,	59.504202E-9
1.552204E+3,	60.522862E-9
1.552208E+3,	61.622082E-9
1.552212E+3,	62.950606E-9
1.552216E+3,	64.125491E-9
1.552220E+3,	65.044583E-9
1.552224E+3,	65.889766E-9
1.552228E+3,	66.516774E-9
1.552232E+3,	66.766487E-9
1.552236E+3,	66.746306E-9
1.552240E+3,	66.561661E-9
1.552244E+3,	66.012027E-9
1.552248E+3,	65.303266E-9
1.552252E+3,	64.558093E-9
1.552256E+3,	63.604067E-9
1.552260E+3,	62.340450E-9
1.552264E+3,	61.123821E-9
1.552268E+3,	60.113420E-9
1.552272E+3,	59.002133E-9
1.552276E+3,	57.968198E-9
1.552280E+3,	56.827066E-9
1.552284E+3,	56.030819E-9
1.552288E+3,	55.575858E-9
1.552292E+3,	55.182632E-9
1.552296E+3,	55.047770E-9
1.552300E+3,	55.246871E-9
1.552304E+3,	55.632275E-9
1.552308E+3,	56.223079E-9
1.552312E+3,	57.144228E-9
1.552316E+3,	58.244762E-9
1.552320E+3,	59.282323E-9
1.552324E+3,	60.292033E-9
1.552328E+3,	61.415913E-9
1.552332E+3,	62.307631E-9
1.552336E+3,	62.894993E-9
1.552340E+3,	63.386982E-9
1.552344E+3,	63.725536E-9
1.552348E+3,	63.708940E-9
1.552352E+3,	63.485140E-9
1.552356E+3,	63.030291E-9
1.552360E+3,	62.259293E-9
1.552364E+3,	61.345913E-9
1.552368E+3,	60.444634E-9
1.552372E+3,	59.365098E-9
1.552376E+3,	58.211623E-9
1.552380E+3,	56.807254E-9
1.552384E+3,	55.528607E-9
1.552388E+3,	54.582882E-9
1.552392E+3,	53.680976E-9
1.552396E+3,	52.884630E-9
1.552400E+3,	52.309486E-9
1.552404E+3,	52.040010E-9
1.552408E+3,	51.977252E-9
1.552412E+3,	52.188036E-9
1.552416E+3,	52.580164E-9
1.552420E+3,	53.053612E-9
1.552424E+3,	53.727218E-9
1.552428E+3,	54.815081E-9
1.552432E+3,	55.803622E-9
1.552436E+3,	56.676296E-9
1.552440E+3,	57.510401E-9
1.552444E+3,	58.380054E-9
1.552448E+3,	59.070268E-9
1.552452E+3,	59.479624E-9
1.552456E+3,	59.742696E-9
1.552460E+3,	59.709640E-9
1.552464E+3,	59.490301E-9
1.552468E+3,	59.078098E-9
1.552472E+3,	58.440089E-9
1.552476E+3,	57.616761E-9
1.552480E+3,	56.450574E-9
1.552484E+3,	55.399490E-9
1.552488E+3,	54.524929E-9
1.552492E+3,	53.482833E-9
1.552496E+3,	52.264917E-9
1.552500E+3,	51.270683E-9
1.552504E+3,	50.614825E-9
1.552508E+3,	49.974332E-9
1.552512E+3,	49.441516E-9
1.552516E+3,	49.230826E-9
1.552520E+3,	49.236553E-9
1.552524E+3,	49.413420E-9
1.552528E+3,	49.784252E-9
1.552532E+3,	50.309029E-9
1.552536E+3,	50.879361E-9
1.552540E+3,	51.605339E-9
1.552544E+3,	52.573831E-9
1.552548E+3,	53.389336E-9
1.552552E+3,	54.034897E-9
1.552556E+3,	54.669014E-9
1.552560E+3,	55.283998E-9
1.552564E+3,	55.634288E-9
1.552568E+3,	55.707166E-9
1.552572E+3,	55.555428E-9
1.552576E+3,	55.228902E-9
1.552580E+3,	54.592321E-9
1.552584E+3,	53.761734E-9
1.552588E+3,	52.986184E-9
1.552592E+3,	52.011769E-9
1.552596E+3,	50.879531E-9
1.552600E+3,	49.866392E-9
1.552604E+3,	49.053717E-9
1.552608E+3,	48.127189E-9
1.552612E+3,	47.258852E-9
1.552616E+3,	46.521298E-9
1.552620E+3,	46.100489E-9
1.552624E+3,	45.843515E-9
1.552628E+3,	45.834717E-9
1.552632E+3,	46.014469E-9
1.552636E+3,	46.362273E-9
1.552640E+3,	46.873580E-9
1.552644E+3,	47.854210E-9
1.552648E+3,	48.772685E-9
1.552652E+3,	49.595089E-9
1.552656E+3,	50.588075E-9
1.552660E+3,	51.732602E-9
1.552664E+3,	52.784613E-9
1.552668E+3,	53.587231E-9
1.552672E+3,	54.353358E-9
1.552676E+3,	54.963236E-9
1.552680E+3,	55.441273E-9
1.552684E+3,	55.654398E-9
1.552688E+3,	55.672558E-9
1.552692E+3,	55.453007E-9
1.552696E+3,	54.898126E-9
1.552700E+3,	54.196184E-9
1.552704E+3,	53.458958E-9
1.552708E+3,	52.615870E-9
1.552712E+3,	51.557416E-9
1.552716E+3,	50.599130E-9
1.552720E+3,	49.855362E-9
1.552724E+3,	49.124528E-9
1.552728E+3,	48.354220E-9
1.552732E+3,	47.823635E-9
1.552736E+3,	47.577935E-9
1.552740E+3,	47.414474E-9
1.552744E+3,	47.418736E-9
1.552748E+3,	47.599859E-9
1.552752E+3,	47.886047E-9
1.552756E+3,	48.337246E-9
1.552760E+3,	48.898095E-9
1.552764E+3,	49.500595E-9
1.552768E+3,	50.010427E-9
1.552772E+3,	50.580755E-9
1.552776E+3,	51.059823E-9
1.552780E+3,	51.556980E-9
1.552784E+3,	51.866574E-9
1.552788E+3,	51.995287E-9
1.552792E+3,	51.998092E-9
1.552796E+3,	51.764696E-9
1.552800E+3,	51.283384E-9
1.552804E+3,	50.782654E-9
1.552808E+3,	50.028478E-9
1.552812E+3,	48.990398E-9
1.552816E+3,	47.981439E-9
1.552820E+3,	47.153008E-9
1.552824E+3,	46.135296E-9
1.552828E+3,	44.952978E-9
1.552832E+3,	43.932476E-9
1.552836E+3,	43.271803E-9
1.552840E+3,	42.643631E-9
1.552844E+3,	42.074073E-9
1.552848E+3,	41.658735E-9
1.552852E+3,	41.462272E-9
1.552856E+3,	41.415445E-9
1.552860E+3,	41.601006E-9
1.552864E+3,	41.874293E-9
1.552868E+3,	42.184872E-9
1.552872E+3,	42.562782E-9
1.552876E+3,	43.071709E-9
1.552880E+3,	43.649262E-9
1.552884E+3,	44.104554E-9
1.552888E+3,	44.458740E-9
1.552892E+3,	44.711593E-9
1.552896E+3,	44.891011E-9
1.552900E+3,	44.895879E-9
1.552904E+3,	44.810546E-9
1.552908E+3,	44.552720E-9
1.552912E+3,	44.055749E-9
1.552916E+3,	43.418988E-9
1.552920E+3,	42.853709E-9
1.552924E+3,	42.096552E-9
1.552928E+3,	40.963211E-9
1.552932E+3,	39.832950E-9
1.552936E+3,	38.911710E-9
1.552940E+3,	37.937644E-9
1.552944E+3,	36.827994E-9
1.552948E+3,	35.982165E-9
1.552952E+3,	35.362187E-9
1.552956E+3,	34.775753E-9
1.552960E+3,	34.247915E-9
1.552964E+3,	33.970446E-9
1.552968E+3,	33.870556E-9
1.552972E+3,	33.823733E-9
1.552976E+3,	33.928927E-9
1.552980E+3,	34.153793E-9
1.552984E+3,	34.392135E-9
1.552988E+3,	34.667888E-9
1.552992E+3,	34.955820E-9
1.552996E+3,	35.260912E-9
1.553000E+3,	35.496278E-9
1.553004E+3,	35.651522E-9
1.553008E+3,	35.766850E-9
1.553012E+3,	35.763455E-9
1.553016E+3,	35.617318E-9
1.553020E+3,	35.403432E-9
1.553024E+3,	35.028035E-9
1.553028E+3,	34.491407E-9
1.553032E+3,	33.842198E-9
1.553036E+3,	33.171919E-9
1.553040E+3,	32.366159E-9
1.553044E+3,	31.379632E-9
1.553048E+3,	30.496572E-9
1.553052E+3,	29.735749E-9
1.553056E+3,	28.922983E-9
1.553060E+3,	28.024242E-9
1.553064E+3,	27.274051E-9
1.553068E+3,	26.801317E-9
1.553072E+3,	26.333299E-9
1.553076E+3,	26.124689E-9
1.553080E+3,	25.991289E-9
1.553084E+3,	26.011122E-9
1.553088E+3,	26.114448E-9
1.553092E+3,	26.346784E-9
1.553096E+3,	26.594586E-9
1.553100E+3,	26.913091E-9
1.553104E+3,	27.240206E-9
1.553108E+3,	27.534493E-9
1.553112E+3,	27.750615E-9
1.553116E+3,	27.917387E-9
1.553120E+3,	28.052236E-9
1.553124E+3,	28.047203E-9
1.553128E+3,	27.959582E-9
1.553132E+3,	27.705776E-9
1.553136E+3,	27.310657E-9
1.553140E+3,	26.843688E-9
1.553144E+3,	26.275125E-9
1.553148E+3,	25.613210E-9
1.553152E+3,	24.786643E-9
1.553156E+3,	23.985666E-9
1.553160E+3,	23.304979E-9
1.553164E+3,	22.541851E-9
1.553168E+3,	21.662050E-9
1.553172E+3,	20.918895E-9
1.553176E+3,	20.393131E-9
1.553180E+3,	19.890882E-9
1.553184E+3,	19.496251E-9
1.553188E+3,	19.212253E-9
1.553192E+3,	19.085394E-9
1.553196E+3,	19.066534E-9
1.553200E+3,	19.133840E-9
1.553204E+3,	19.292635E-9
1.553208E+3,	19.411951E-9
1.553212E+3,	19.621333E-9
1.553216E+3,	19.851456E-9
1.553220E+3,	20.039025E-9
1.553224E+3,	20.201702E-9
1.553228E+3,	20.328589E-9
1.553232E+3,	20.383061E-9
1.553236E+3,	20.320157E-9
1.553240E+3,	20.207768E-9
1.553244E+3,	19.974039E-9
1.553248E+3,	19.627145E-9
1.553252E+3,	19.200770E-9
1.553256E+3,	18.763622E-9
1.553260E+3,	18.280168E-9
1.553264E+3,	17.609777E-9
1.553268E+3,	17.013197E-9
1.553272E+3,	16.531577E-9
1.553276E+3,	15.941127E-9
1.553280E+3,	15.325227E-9
1.553284E+3,	14.809501E-9
1.553288E+3,	14.509518E-9
1.553292E+3,	14.206023E-9
1.553296E+3,	13.932961E-9
1.553300E+3,	13.782694E-9
1.553304E+3,	13.729043E-9
1.553308E+3,	13.698514E-9
1.553312E+3,	13.789811E-9
1.553316E+3,	13.907398E-9
1.553320E+3,	13.984887E-9
1.553324E+3,	14.111694E-9
1.553328E+3,	14.247679E-9
1.553332E+3,	14.332486E-9
1.553336E+3,	14.392394E-9
1.553340E+3,	14.448587E-9
1.553344E+3,	14.365925E-9
1.553348E+3,	14.239456E-9
1.553352E+3,	14.082550E-9
1.553356E+3,	13.859128E-9
1.553360E+3,	13.493103E-9
1.553364E+3,	13.111395E-9
1.553368E+3,	12.771753E-9
1.553372E+3,	12.341295E-9
1.553376E+3,	11.806045E-9
1.553380E+3,	11.339457E-9
1.553384E+3,	10.957656E-9
1.553388E+3,	10.525955E-9
1.553392E+3,	10.061257E-9
1.553396E+3,	9.697342E-9
1.553400E+3,	9.442746E-9
1.553404E+3,	9.217398E-9
1.553408E+3,	9.005375E-9
1.553412E+3,	8.869734E-9
1.553416E+3,	8.810720E-9
1.553420E+3,	8.770499E-9
1.553424E+3,	8.765324E-9
1.553428E+3,	8.796158E-9
1.553432E+3,	8.832440E-9
1.553436E+3,	8.862467E-9
1.553440E+3,	8.879401E-9
1.553444E+3,	8.917636E-9
1.553448E+3,	8.847223E-9
1.553452E+3,	8.762468E-9
1.553456E+3,	8.624739E-9
1.553460E+3,	8.494149E-9
1.553464E+3,	8.309229E-9
1.553468E+3,	8.087289E-9
1.553472E+3,	7.755165E-9
1.553476E+3,	7.479573E-9
1.553480E+3,	7.237256E-9
1.553484E+3,	6.911994E-9
1.553488E+3,	6.516977E-9
1.553492E+3,	6.167675E-9
1.553496E+3,	5.888788E-9
1.553500E+3,	5.611484E-9
1.553504E+3,	5.330937E-9
1.553508E+3,	5.103387E-9
1.553512E+3,	4.907096E-9
1.553516E+3,	4.765363E-9
1.553520E+3,	4.657635E-9
1.553524E+3,	4.590693E-9
1.553528E+3,	4.552680E-9
1.553532E+3,	4.537654E-9
1.553536E+3,	4.568900E-9
1.553540E+3,	4.596934E-9
1.553544E+3,	4.595521E-9
1.553548E+3,	4.608104E-9
1.553552E+3,	4.638772E-9
1.553556E+3,	4.614722E-9
1.553560E+3,	4.615451E-9
1.553564E+3,	4.580550E-9
1.553568E+3,	4.502926E-9
1.553572E+3,	4.418242E-9
1.553576E+3,	4.314140E-9
1.553580E+3,	4.155380E-9
1.553584E+3,	4.018948E-9
1.553588E+3,	3.852028E-9
1.553592E+3,	3.690288E-9
1.553596E+3,	3.471090E-9
1.553600E+3,	3.260934E-9
1.553604E+3,	3.151290E-9
1.553608E+3,	2.977707E-9
1.553612E+3,	2.811783E-9
1.553616E+3,	2.679746E-9
1.553620E+3,	2.560167E-9
1.553624E+3,	2.472875E-9
1.553628E+3,	2.387156E-9
1.553632E+3,	2.328040E-9
1.553636E+3,	2.321670E-9
1.553640E+3,	2.294516E-9
1.553644E+3,	2.309960E-9
1.553648E+3,	2.293520E-9
1.553652E+3,	2.315836E-9
1.553656E+3,	2.338293E-9
1.553660E+3,	2.344749E-9
1.553664E+3,	2.356406E-9
1.553668E+3,	2.339793E-9
1.553672E+3,	2.345606E-9
1.553676E+3,	2.313645E-9
1.553680E+3,	2.286037E-9
1.553684E+3,	2.243076E-9
1.553688E+3,	2.207807E-9
1.553692E+3,	2.118335E-9
1.553696E+3,	2.022173E-9
1.553700E+3,	1.976028E-9
1.553704E+3,	1.890886E-9
1.553708E+3,	1.810189E-9
1.553712E+3,	1.715026E-9
1.553716E+3,	1.662295E-9
1.553720E+3,	1.579920E-9
1.553724E+3,	1.508026E-9
1.553728E+3,	1.457448E-9
1.553732E+3,	1.399997E-9
1.553736E+3,	1.356165E-9
1.553740E+3,	1.311779E-9
1.553744E+3,	1.294792E-9
1.553748E+3,	1.294684E-9
1.553752E+3,	1.287222E-9
1.553756E+3,	1.280538E-9
1.553760E+3,	1.283050E-9
1.553764E+3,	1.295610E-9
1.553768E+3,	1.298962E-9
1.553772E+3,	1.290093E-9
1.553776E+3,	1.293810E-9
1.553780E+3,	1.256371E-9
1.553784E+3,	1.266722E-9
1.553788E+3,	1.244708E-9
1.553792E+3,	1.212759E-9
1.553796E+3,	1.185775E-9
1.553800E+3,	1.167931E-9
1.553804E+3,	1.098710E-9
1.553808E+3,	1.101797E-9
1.553812E+3,	1.034983E-9
1.553816E+3,	994.752482E-12
1.553820E+3,	938.703534E-12
1.553824E+3,	902.688670E-12
1.553828E+3,	814.825615E-12
1.553832E+3,	815.566594E-12
1.553836E+3,	753.923831E-12
1.553840E+3,	741.500245E-12
1.553844E+3,	716.360443E-12
1.553848E+3,	722.917204E-12
1.553852E+3,	700.043182E-12
1.553856E+3,	689.302006E-12
1.553860E+3,	675.777741E-12
1.553864E+3,	671.406441E-12
1.553868E+3,	674.795993E-12
1.553872E+3,	676.340226E-12
1.553876E+3,	717.081210E-12
1.553880E+3,	692.625966E-12
1.553884E+3,	687.859040E-12
1.553888E+3,	702.051082E-12
1.553892E+3,	681.787780E-12
1.553896E+3,	659.296357E-12
1.553900E+3,	656.838899E-12
1.553904E+3,	638.397233E-12
1.553908E+3,	640.127173E-12
1.553912E+3,	613.702113E-12
1.553916E+3,	573.721589E-12
1.553920E+3,	548.451042E-12
1.553924E+3,	521.142742E-12
1.553928E+3,	495.612944E-12
1.553932E+3,	453.036407E-12
1.553936E+3,	443.480782E-12
1.553940E+3,	427.694137E-12
1.553944E+3,	411.668467E-12
1.553948E+3,	401.758928E-12
1.553952E+3,	380.616681E-12
1.553956E+3,	391.027240E-12
1.553960E+3,	384.763697E-12
1.553964E+3,	362.164740E-12
1.553968E+3,	352.410601E-12
1.553972E+3,	362.396813E-12
1.553976E+3,	352.482751E-12
1.553980E+3,	350.221987E-12
1.553984E+3,	350.561401E-12
1.553988E+3,	351.130048E-12
1.553992E+3,	328.485169E-12
1.553996E+3,	357.468645E-12
1.554000E+3,	344.639293E-12
1.554004E+3,	343.736155E-12
1.554008E+3,	329.695813E-12
1.554012E+3,	322.218832E-12
1.554016E+3,	312.748745E-12
1.554020E+3,	305.058169E-12
1.554024E+3,	285.092352E-12
1.554028E+3,	302.459476E-12
1.554032E+3,	256.273416E-12
1.554036E+3,	251.546943E-12
1.554040E+3,	229.213060E-12
1.554044E+3,	223.463122E-12
1.554048E+3,	223.128168E-12
1.554052E+3,	218.196688E-12
1.554056E+3,	192.636160E-12
1.554060E+3,	201.103246E-12
1.554064E+3,	179.523280E-12
1.554068E+3,	183.323874E-12
1.554072E+3,	183.606354E-12
1.554076E+3,	192.274565E-12
1.554080E+3,	187.569455E-12
1.554084E+3,	169.884770E-12
1.554088E+3,	165.768035E-12
1.554092E+3,	188.617889E-12
1.554096E+3,	170.533810E-12
1.554100E+3,	174.335295E-12
1.554104E+3,	166.579636E-12
1.554108E+3,	174.235728E-12
1.554112E+3,	172.517980E-12
1.554116E+3,	156.377487E-12
1.554120E+3,	157.480667E-12
1.554124E+3,	167.809411E-12
1.554128E+3,	166.158619E-12
1.554132E+3,	162.782924E-12
1.554136E+3,	141.882629E-12
1.554140E+3,	150.515218E-12
1.554144E+3,	115.170082E-12
1.554148E+3,	120.734488E-12
1.554152E+3,	103.078936E-12
1.554156E+3,	126.152479E-12
1.554160E+3,	112.220942E-12
1.554164E+3,	111.356281E-12
1.554168E+3,	96.934570E-12
1.554172E+3,	88.545715E-12
1.554176E+3,	83.973044E-12
1.554180E+3,	92.639171E-12
1.554184E+3,	101.809634E-12
1.554188E+3,	86.700239E-12
1.554192E+3,	91.523855E-12
1.554196E+3,	76.321885E-12
1.554200E+3,	70.118910E-12
1.554204E+3,	89.726369E-12
1.554208E+3,	108.561331E-12
1.554212E+3,	85.796753E-12
1.554216E+3,	91.941460E-12
1.554220E+3,	93.191276E-12
1.554224E+3,	100.006727E-12
1.554228E+3,	108.748585E-12
1.554232E+3,	85.183736E-12
1.554236E+3,	99.320133E-12
1.554240E+3,	87.000055E-12
1.554244E+3,	64.646019E-12
1.554248E+3,	66.961737E-12
1.554252E+3,	89.078844E-12
1.554256E+3,	76.810137E-12
1.554260E+3,	55.289370E-12
1.554264E+3,	52.621424E-12
1.554268E+3,	60.550820E-12
1.554272E+3,	81.301860E-12
1.554276E+3,	44.965161E-12
1.554280E+3,	54.157834E-12
1.554284E+3,	46.919395E-12
1.554288E+3,	48.553119E-12
1.554292E+3,	48.644856E-12
1.554296E+3,	47.685446E-12
1.554300E+3,	36.560047E-12
1.554304E+3,	62.012840E-12
1.554308E+3,	38.318274E-12
1.554312E+3,	66.258394E-12
1.554316E+3,	40.263783E-12
1.554320E+3,	45.141589E-12
1.554324E+3,	28.198725E-12
1.554328E+3,	37.801475E-12
1.554332E+3,	48.100069E-12
1.554336E+3,	25.092572E-12
1.554340E+3,	36.301746E-12
1.554344E+3,	35.706847E-12
1.554348E+3,	21.248706E-12
1.554352E+3,	45.309593E-12
1.554356E+3,	19.065621E-12
1.554360E+3,	15.328596E-12
1.554364E+3,	12.282513E-12
1.554368E+3,	29.682775E-12
1.554372E+3,	27.835527E-12
1.554376E+3,	31.506275E-12
1.554380E+3,	42.724780E-12
1.554384E+3,	37.772159E-12
1.554388E+3,	20.656307E-12
1.554392E+3,	21.277075E-12
1.554396E+3,	7.566538E-12
1.554400E+3,	14.385744E-12
1.554404E+3,	10.499899E-12
1.554408E+3,	8.049565E-12
1.554412E+3,	33.389899E-12
1.554416E+3,	20.050927E-12
1.554420E+3,	8.669483E-12
1.554424E+3,	30.101607E-12
1.554428E+3,	19.640725E-12
1.554432E+3,	338.100686E-15
1.554436E+3,	28.060771E-12
1.554440E+3,	32.171161E-12
1.554444E+3,	26.930972E-12
1.554448E+3,	22.096217E-12
1.554452E+3,	10.177226E-12
1.554456E+3,	25.667381E-12
1.554460E+3,	10.244123E-12
1.554464E+3,	33.067483E-12
1.554468E+3,	41.814371E-12
1.554472E+3,	6.919494E-12
1.554476E+3,	20.134507E-12
1.554480E+3,	0.000000E+0
1.554484E+3,	16.984583E-12
1.554488E+3,	0.000000E+0
1.554492E+3,	16.249928E-12
1.554496E+3,	0.000000E+0
1.554500E+3,	11.490800E-12
