YOKOGAWA AQ6370D - S/N: 91S206859
#Date: 20/10/2023 Time: 12:45:30,	
A_WL(nm),	A_I(mW)
1.547500E+3,	14.798543E-12
1.547504E+3,	19.748761E-12
1.547508E+3,	25.949227E-12
1.547512E+3,	25.876702E-12
1.547516E+3,	5.886767E-12
1.547520E+3,	1.567224E-12
1.547524E+3,	6.695154E-12
1.547528E+3,	6.618283E-12
1.547532E+3,	25.405326E-12
1.547536E+3,	0.000000E+0
1.547540E+3,	0.000000E+0
1.547544E+3,	10.266766E-12
1.547548E+3,	13.022527E-12
1.547552E+3,	22.141924E-12
1.547556E+3,	24.532950E-12
1.547560E+3,	9.742903E-12
1.547564E+3,	17.174300E-12
1.547568E+3,	8.308725E-12
1.547572E+3,	2.996632E-12
1.547576E+3,	0.000000E+0
1.547580E+3,	0.000000E+0
1.547584E+3,	0.000000E+0
1.547588E+3,	22.540782E-12
1.547592E+3,	4.990931E-12
1.547596E+3,	6.693021E-12
1.547600E+3,	12.585532E-12
1.547604E+3,	0.000000E+0
1.547608E+3,	6.569756E-12
1.547612E+3,	0.000000E+0
1.547616E+3,	19.875298E-12
1.547620E+3,	0.000000E+0
1.547624E+3,	0.000000E+0
1.547628E+3,	22.817985E-12
1.547632E+3,	0.000000E+0
1.547636E+3,	26.471491E-12
1.547640E+3,	9.699334E-12
1.547644E+3,	0.000000E+0
1.547648E+3,	25.991468E-12
1.547652E+3,	0.000000E+0
1.547656E+3,	0.000000E+0
1.547660E+3,	27.543372E-12
1.547664E+3,	331.596140E-15
1.547668E+3,	4.139776E-12
1.547672E+3,	0.000000E+0
1.547676E+3,	15.424575E-12
1.547680E+3,	17.464582E-12
1.547684E+3,	4.865144E-12
1.547688E+3,	1.637259E-12
1.547692E+3,	631.173317E-15
1.547696E+3,	32.654955E-12
1.547700E+3,	43.617897E-12
1.547704E+3,	10.377937E-12
1.547708E+3,	13.986637E-12
1.547712E+3,	6.335469E-12
1.547716E+3,	6.688343E-12
1.547720E+3,	8.606394E-12
1.547724E+3,	0.000000E+0
1.547728E+3,	7.623295E-12
1.547732E+3,	22.460469E-12
1.547736E+3,	12.201630E-12
1.547740E+3,	0.000000E+0
1.547744E+3,	18.125405E-12
1.547748E+3,	19.123016E-12
1.547752E+3,	18.451896E-12
1.547756E+3,	0.000000E+0
1.547760E+3,	5.760770E-12
1.547764E+3,	20.283869E-12
1.547768E+3,	0.000000E+0
1.547772E+3,	0.000000E+0
1.547776E+3,	17.030507E-12
1.547780E+3,	12.565519E-12
1.547784E+3,	25.165991E-12
1.547788E+3,	22.297228E-12
1.547792E+3,	7.024728E-12
1.547796E+3,	17.241570E-12
1.547800E+3,	9.128778E-12
1.547804E+3,	41.415059E-12
1.547808E+3,	12.992249E-12
1.547812E+3,	821.408901E-15
1.547816E+3,	8.591029E-12
1.547820E+3,	20.447111E-12
1.547824E+3,	4.613389E-12
1.547828E+3,	4.377535E-12
1.547832E+3,	0.000000E+0
1.547836E+3,	5.762772E-12
1.547840E+3,	18.893475E-12
1.547844E+3,	2.526996E-12
1.547848E+3,	15.752906E-12
1.547852E+3,	23.009921E-12
1.547856E+3,	33.937064E-12
1.547860E+3,	4.845423E-12
1.547864E+3,	7.946535E-12
1.547868E+3,	0.000000E+0
1.547872E+3,	5.139522E-12
1.547876E+3,	8.906572E-12
1.547880E+3,	26.482404E-12
1.547884E+3,	7.733905E-12
1.547888E+3,	5.466087E-12
1.547892E+3,	27.672553E-12
1.547896E+3,	20.413403E-12
1.547900E+3,	11.743405E-12
1.547904E+3,	23.917045E-12
1.547908E+3,	0.000000E+0
1.547912E+3,	13.466949E-12
1.547916E+3,	8.874750E-12
1.547920E+3,	674.547935E-15
1.547924E+3,	22.574502E-12
1.547928E+3,	9.185308E-12
1.547932E+3,	35.237990E-12
1.547936E+3,	16.459988E-12
1.547940E+3,	23.940703E-12
1.547944E+3,	0.000000E+0
1.547948E+3,	0.000000E+0
1.547952E+3,	17.426032E-12
1.547956E+3,	7.905605E-12
1.547960E+3,	17.778077E-12
1.547964E+3,	0.000000E+0
1.547968E+3,	0.000000E+0
1.547972E+3,	25.138385E-12
1.547976E+3,	0.000000E+0
1.547980E+3,	15.619952E-12
1.547984E+3,	0.000000E+0
1.547988E+3,	18.387808E-12
1.547992E+3,	16.645721E-12
1.547996E+3,	8.787129E-12
1.548000E+3,	0.000000E+0
1.548004E+3,	9.858851E-12
1.548008E+3,	19.458465E-12
1.548012E+3,	37.097074E-12
1.548016E+3,	10.711009E-12
1.548020E+3,	0.000000E+0
1.548024E+3,	18.047173E-12
1.548028E+3,	2.531065E-12
1.548032E+3,	0.000000E+0
1.548036E+3,	8.673065E-12
1.548040E+3,	25.078835E-12
1.548044E+3,	15.742012E-12
1.548048E+3,	0.000000E+0
1.548052E+3,	0.000000E+0
1.548056E+3,	13.534862E-12
1.548060E+3,	12.710813E-12
1.548064E+3,	6.049434E-12
1.548068E+3,	37.604345E-12
1.548072E+3,	0.000000E+0
1.548076E+3,	23.745337E-12
1.548080E+3,	16.671547E-12
1.548084E+3,	8.647000E-12
1.548088E+3,	8.991949E-12
1.548092E+3,	27.309352E-12
1.548096E+3,	15.237296E-12
1.548100E+3,	28.889909E-12
1.548104E+3,	3.636202E-12
1.548108E+3,	875.904541E-15
1.548112E+3,	0.000000E+0
1.548116E+3,	9.091323E-12
1.548120E+3,	0.000000E+0
1.548124E+3,	21.651017E-12
1.548128E+3,	12.262686E-12
1.548132E+3,	31.009641E-12
1.548136E+3,	14.587070E-12
1.548140E+3,	15.022892E-12
1.548144E+3,	14.205726E-12
1.548148E+3,	7.831828E-12
1.548152E+3,	216.409139E-15
1.548156E+3,	0.000000E+0
1.548160E+3,	13.679106E-12
1.548164E+3,	0.000000E+0
1.548168E+3,	9.100840E-12
1.548172E+3,	19.897220E-12
1.548176E+3,	32.354274E-12
1.548180E+3,	14.154508E-12
1.548184E+3,	6.053614E-12
1.548188E+3,	0.000000E+0
1.548192E+3,	23.641556E-12
1.548196E+3,	1.094996E-12
1.548200E+3,	12.541594E-12
1.548204E+3,	0.000000E+0
1.548208E+3,	15.851965E-12
1.548212E+3,	0.000000E+0
1.548216E+3,	11.084886E-12
1.548220E+3,	18.404747E-12
1.548224E+3,	7.524852E-12
1.548228E+3,	0.000000E+0
1.548232E+3,	0.000000E+0
1.548236E+3,	0.000000E+0
1.548240E+3,	0.000000E+0
1.548244E+3,	0.000000E+0
1.548248E+3,	14.352830E-12
1.548252E+3,	15.193322E-12
1.548256E+3,	0.000000E+0
1.548260E+3,	8.017110E-12
1.548264E+3,	7.553303E-12
1.548268E+3,	0.000000E+0
1.548272E+3,	5.746159E-12
1.548276E+3,	532.052086E-15
1.548280E+3,	2.313011E-12
1.548284E+3,	0.000000E+0
1.548288E+3,	0.000000E+0
1.548292E+3,	12.285695E-12
1.548296E+3,	0.000000E+0
1.548300E+3,	0.000000E+0
1.548304E+3,	18.343845E-12
1.548308E+3,	6.354421E-12
1.548312E+3,	0.000000E+0
1.548316E+3,	14.015651E-12
1.548320E+3,	2.058606E-12
1.548324E+3,	17.573050E-12
1.548328E+3,	0.000000E+0
1.548332E+3,	11.819585E-12
1.548336E+3,	30.795316E-12
1.548340E+3,	18.562877E-12
1.548344E+3,	14.703152E-12
1.548348E+3,	26.849215E-12
1.548352E+3,	21.434681E-12
1.548356E+3,	13.709888E-12
1.548360E+3,	23.466119E-12
1.548364E+3,	17.298212E-12
1.548368E+3,	34.194225E-12
1.548372E+3,	36.647257E-12
1.548376E+3,	58.477354E-12
1.548380E+3,	52.717210E-12
1.548384E+3,	80.554282E-12
1.548388E+3,	73.562173E-12
1.548392E+3,	94.160310E-12
1.548396E+3,	81.088771E-12
1.548400E+3,	86.571691E-12
1.548404E+3,	89.180868E-12
1.548408E+3,	112.195059E-12
1.548412E+3,	85.815622E-12
1.548416E+3,	113.322211E-12
1.548420E+3,	114.830084E-12
1.548424E+3,	124.408309E-12
1.548428E+3,	136.592840E-12
1.548432E+3,	125.884714E-12
1.548436E+3,	137.879022E-12
1.548440E+3,	171.001307E-12
1.548444E+3,	200.926109E-12
1.548448E+3,	205.052066E-12
1.548452E+3,	216.089932E-12
1.548456E+3,	262.175525E-12
1.548460E+3,	268.388163E-12
1.548464E+3,	287.206791E-12
1.548468E+3,	300.865407E-12
1.548472E+3,	326.105358E-12
1.548476E+3,	333.150970E-12
1.548480E+3,	360.648330E-12
1.548484E+3,	359.600878E-12
1.548488E+3,	402.572290E-12
1.548492E+3,	400.735265E-12
1.548496E+3,	441.968716E-12
1.548500E+3,	454.915122E-12
1.548504E+3,	461.666976E-12
1.548508E+3,	483.547794E-12
1.548512E+3,	505.883377E-12
1.548516E+3,	552.396801E-12
1.548520E+3,	588.285131E-12
1.548524E+3,	605.974900E-12
1.548528E+3,	621.617054E-12
1.548532E+3,	666.706428E-12
1.548536E+3,	712.075104E-12
1.548540E+3,	771.189121E-12
1.548544E+3,	805.718552E-12
1.548548E+3,	850.442764E-12
1.548552E+3,	913.037561E-12
1.548556E+3,	993.004880E-12
1.548560E+3,	1.044214E-9
1.548564E+3,	1.108143E-9
1.548568E+3,	1.164558E-9
1.548572E+3,	1.250791E-9
1.548576E+3,	1.333878E-9
1.548580E+3,	1.381743E-9
1.548584E+3,	1.431355E-9
1.548588E+3,	1.497067E-9
1.548592E+3,	1.594608E-9
1.548596E+3,	1.650444E-9
1.548600E+3,	1.676615E-9
1.548604E+3,	1.745782E-9
1.548608E+3,	1.807469E-9
1.548612E+3,	1.867531E-9
1.548616E+3,	1.922387E-9
1.548620E+3,	1.982597E-9
1.548624E+3,	2.040044E-9
1.548628E+3,	2.088988E-9
1.548632E+3,	2.193993E-9
1.548636E+3,	2.289721E-9
1.548640E+3,	2.315073E-9
1.548644E+3,	2.451532E-9
1.548648E+3,	2.560255E-9
1.548652E+3,	2.675311E-9
1.548656E+3,	2.781154E-9
1.548660E+3,	2.912475E-9
1.548664E+3,	3.058794E-9
1.548668E+3,	3.219735E-9
1.548672E+3,	3.352701E-9
1.548676E+3,	3.513312E-9
1.548680E+3,	3.659776E-9
1.548684E+3,	3.836291E-9
1.548688E+3,	4.044798E-9
1.548692E+3,	4.222332E-9
1.548696E+3,	4.344466E-9
1.548700E+3,	4.478365E-9
1.548704E+3,	4.610135E-9
1.548708E+3,	4.757561E-9
1.548712E+3,	4.920365E-9
1.548716E+3,	5.025963E-9
1.548720E+3,	5.140711E-9
1.548724E+3,	5.258627E-9
1.548728E+3,	5.376829E-9
1.548732E+3,	5.492885E-9
1.548736E+3,	5.640319E-9
1.548740E+3,	5.783722E-9
1.548744E+3,	5.953124E-9
1.548748E+3,	6.133114E-9
1.548752E+3,	6.307229E-9
1.548756E+3,	6.494423E-9
1.548760E+3,	6.692451E-9
1.548764E+3,	6.968462E-9
1.548768E+3,	7.245105E-9
1.548772E+3,	7.503211E-9
1.548776E+3,	7.804724E-9
1.548780E+3,	8.044034E-9
1.548784E+3,	8.371979E-9
1.548788E+3,	8.669128E-9
1.548792E+3,	8.927795E-9
1.548796E+3,	9.204233E-9
1.548800E+3,	9.442658E-9
1.548804E+3,	9.696175E-9
1.548808E+3,	9.921233E-9
1.548812E+3,	10.087276E-9
1.548816E+3,	10.254113E-9
1.548820E+3,	10.418000E-9
1.548824E+3,	10.573873E-9
1.548828E+3,	10.735982E-9
1.548832E+3,	10.851850E-9
1.548836E+3,	10.964558E-9
1.548840E+3,	11.156950E-9
1.548844E+3,	11.380592E-9
1.548848E+3,	11.621121E-9
1.548852E+3,	11.832913E-9
1.548856E+3,	12.095173E-9
1.548860E+3,	12.469485E-9
1.548864E+3,	12.872293E-9
1.548868E+3,	13.202053E-9
1.548872E+3,	13.643436E-9
1.548876E+3,	14.110707E-9
1.548880E+3,	14.693013E-9
1.548884E+3,	15.251879E-9
1.548888E+3,	15.719203E-9
1.548892E+3,	16.247371E-9
1.548896E+3,	16.759423E-9
1.548900E+3,	17.386927E-9
1.548904E+3,	17.917447E-9
1.548908E+3,	18.327001E-9
1.548912E+3,	18.710568E-9
1.548916E+3,	19.102400E-9
1.548920E+3,	19.518849E-9
1.548924E+3,	19.812508E-9
1.548928E+3,	20.079921E-9
1.548932E+3,	20.298042E-9
1.548936E+3,	20.518563E-9
1.548940E+3,	20.763177E-9
1.548944E+3,	21.016962E-9
1.548948E+3,	21.201362E-9
1.548952E+3,	21.509223E-9
1.548956E+3,	21.909135E-9
1.548960E+3,	22.364215E-9
1.548964E+3,	22.783405E-9
1.548968E+3,	23.264559E-9
1.548972E+3,	23.919732E-9
1.548976E+3,	24.777079E-9
1.548980E+3,	25.613675E-9
1.548984E+3,	26.396743E-9
1.548988E+3,	27.297390E-9
1.548992E+3,	28.186367E-9
1.548996E+3,	29.286334E-9
1.549000E+3,	30.311456E-9
1.549004E+3,	31.122147E-9
1.549008E+3,	32.097877E-9
1.549012E+3,	33.013417E-9
1.549016E+3,	34.118246E-9
1.549020E+3,	34.964020E-9
1.549024E+3,	35.544054E-9
1.549028E+3,	36.115956E-9
1.549032E+3,	36.725691E-9
1.549036E+3,	37.262746E-9
1.549040E+3,	37.576897E-9
1.549044E+3,	37.867453E-9
1.549048E+3,	38.137747E-9
1.549052E+3,	38.499941E-9
1.549056E+3,	38.836750E-9
1.549060E+3,	39.152042E-9
1.549064E+3,	39.528027E-9
1.549068E+3,	40.027321E-9
1.549072E+3,	40.591893E-9
1.549076E+3,	41.185648E-9
1.549080E+3,	41.935410E-9
1.549084E+3,	42.743843E-9
1.549088E+3,	43.950849E-9
1.549092E+3,	45.151887E-9
1.549096E+3,	46.160699E-9
1.549100E+3,	47.326882E-9
1.549104E+3,	48.459275E-9
1.549108E+3,	49.947294E-9
1.549112E+3,	51.266769E-9
1.549116E+3,	52.375043E-9
1.549120E+3,	53.506828E-9
1.549124E+3,	54.751455E-9
1.549128E+3,	55.756086E-9
1.549132E+3,	56.542690E-9
1.549136E+3,	57.299841E-9
1.549140E+3,	57.963575E-9
1.549144E+3,	58.646065E-9
1.549148E+3,	59.080403E-9
1.549152E+3,	59.310686E-9
1.549156E+3,	59.440088E-9
1.549160E+3,	59.491091E-9
1.549164E+3,	59.496960E-9
1.549168E+3,	59.513529E-9
1.549172E+3,	59.573303E-9
1.549176E+3,	59.661182E-9
1.549180E+3,	60.004011E-9
1.549184E+3,	60.491872E-9
1.549188E+3,	61.009774E-9
1.549192E+3,	61.788155E-9
1.549196E+3,	62.679641E-9
1.549200E+3,	63.834772E-9
1.549204E+3,	65.054463E-9
1.549208E+3,	66.125116E-9
1.549212E+3,	67.412939E-9
1.549216E+3,	68.952806E-9
1.549220E+3,	70.304435E-9
1.549224E+3,	71.361398E-9
1.549228E+3,	72.462348E-9
1.549232E+3,	73.530566E-9
1.549236E+3,	74.684611E-9
1.549240E+3,	75.660170E-9
1.549244E+3,	76.321146E-9
1.549248E+3,	76.830520E-9
1.549252E+3,	77.196667E-9
1.549256E+3,	77.372394E-9
1.549260E+3,	77.296731E-9
1.549264E+3,	77.098743E-9
1.549268E+3,	76.719086E-9
1.549272E+3,	76.078286E-9
1.549276E+3,	75.502504E-9
1.549280E+3,	75.046516E-9
1.549284E+3,	74.628876E-9
1.549288E+3,	74.306391E-9
1.549292E+3,	74.228080E-9
1.549296E+3,	74.421449E-9
1.549300E+3,	74.742775E-9
1.549304E+3,	75.358838E-9
1.549308E+3,	76.137275E-9
1.549312E+3,	77.295703E-9
1.549316E+3,	78.516935E-9
1.549320E+3,	79.658285E-9
1.549324E+3,	81.011563E-9
1.549328E+3,	82.533247E-9
1.549332E+3,	83.897897E-9
1.549336E+3,	84.932086E-9
1.549340E+3,	86.019346E-9
1.549344E+3,	87.047932E-9
1.549348E+3,	88.016007E-9
1.549352E+3,	88.726483E-9
1.549356E+3,	89.113916E-9
1.549360E+3,	89.376883E-9
1.549364E+3,	89.474255E-9
1.549368E+3,	89.304457E-9
1.549372E+3,	88.902003E-9
1.549376E+3,	88.317478E-9
1.549380E+3,	87.616836E-9
1.549384E+3,	86.655846E-9
1.549388E+3,	85.744174E-9
1.549392E+3,	85.084151E-9
1.549396E+3,	84.360759E-9
1.549400E+3,	83.844959E-9
1.549404E+3,	83.565109E-9
1.549408E+3,	83.647425E-9
1.549412E+3,	83.913183E-9
1.549416E+3,	84.542977E-9
1.549420E+3,	85.640165E-9
1.549424E+3,	86.873018E-9
1.549428E+3,	88.056621E-9
1.549432E+3,	89.386860E-9
1.549436E+3,	90.773404E-9
1.549440E+3,	92.379855E-9
1.549444E+3,	93.863029E-9
1.549448E+3,	94.927296E-9
1.549452E+3,	95.926826E-9
1.549456E+3,	96.810691E-9
1.549460E+3,	97.621213E-9
1.549464E+3,	98.118482E-9
1.549468E+3,	98.291216E-9
1.549472E+3,	98.275839E-9
1.549476E+3,	98.004469E-9
1.549480E+3,	97.502789E-9
1.549484E+3,	96.911289E-9
1.549488E+3,	96.231403E-9
1.549492E+3,	95.429215E-9
1.549496E+3,	94.460623E-9
1.549500E+3,	93.646235E-9
1.549504E+3,	93.001683E-9
1.549508E+3,	92.419118E-9
1.549512E+3,	92.038586E-9
1.549516E+3,	92.136582E-9
1.549520E+3,	92.434300E-9
1.549524E+3,	93.073249E-9
1.549528E+3,	94.004134E-9
1.549532E+3,	95.533584E-9
1.549536E+3,	97.315302E-9
1.549540E+3,	98.862332E-9
1.549544E+3,	100.615144E-9
1.549548E+3,	102.297782E-9
1.549552E+3,	104.159471E-9
1.549556E+3,	105.724351E-9
1.549560E+3,	106.871118E-9
1.549564E+3,	107.907096E-9
1.549568E+3,	108.623898E-9
1.549572E+3,	109.031899E-9
1.549576E+3,	109.049761E-9
1.549580E+3,	108.972496E-9
1.549584E+3,	108.624621E-9
1.549588E+3,	107.865221E-9
1.549592E+3,	106.959441E-9
1.549596E+3,	106.068728E-9
1.549600E+3,	104.922087E-9
1.549604E+3,	103.690820E-9
1.549608E+3,	102.203841E-9
1.549612E+3,	100.825206E-9
1.549616E+3,	99.680573E-9
1.549620E+3,	98.719319E-9
1.549624E+3,	97.868926E-9
1.549628E+3,	97.384640E-9
1.549632E+3,	97.276773E-9
1.549636E+3,	97.474171E-9
1.549640E+3,	98.029351E-9
1.549644E+3,	99.194536E-9
1.549648E+3,	100.480531E-9
1.549652E+3,	101.708886E-9
1.549656E+3,	103.069135E-9
1.549660E+3,	104.470799E-9
1.549664E+3,	106.121938E-9
1.549668E+3,	107.435449E-9
1.549672E+3,	108.205774E-9
1.549676E+3,	108.883970E-9
1.549680E+3,	109.241791E-9
1.549684E+3,	109.257590E-9
1.549688E+3,	108.971726E-9
1.549692E+3,	108.470301E-9
1.549696E+3,	107.657809E-9
1.549700E+3,	106.583883E-9
1.549704E+3,	105.340770E-9
1.549708E+3,	104.274800E-9
1.549712E+3,	103.051135E-9
1.549716E+3,	101.415040E-9
1.549720E+3,	99.945971E-9
1.549724E+3,	98.845168E-9
1.549728E+3,	97.742859E-9
1.549732E+3,	96.809020E-9
1.549736E+3,	95.910053E-9
1.549740E+3,	95.390034E-9
1.549744E+3,	95.229211E-9
1.549748E+3,	95.304536E-9
1.549752E+3,	95.548378E-9
1.549756E+3,	96.216897E-9
1.549760E+3,	97.115648E-9
1.549764E+3,	97.990099E-9
1.549768E+3,	99.035021E-9
1.549772E+3,	100.322564E-9
1.549776E+3,	101.517602E-9
1.549780E+3,	102.367561E-9
1.549784E+3,	103.086427E-9
1.549788E+3,	103.534678E-9
1.549792E+3,	103.684396E-9
1.549796E+3,	103.555642E-9
1.549800E+3,	103.104305E-9
1.549804E+3,	102.295601E-9
1.549808E+3,	101.236396E-9
1.549812E+3,	99.769753E-9
1.549816E+3,	98.333325E-9
1.549820E+3,	97.103818E-9
1.549824E+3,	95.638005E-9
1.549828E+3,	93.737712E-9
1.549832E+3,	92.031006E-9
1.549836E+3,	90.772687E-9
1.549840E+3,	89.495772E-9
1.549844E+3,	88.306983E-9
1.549848E+3,	87.050011E-9
1.549852E+3,	86.106197E-9
1.549856E+3,	85.454990E-9
1.549860E+3,	84.999751E-9
1.549864E+3,	84.764180E-9
1.549868E+3,	84.808919E-9
1.549872E+3,	85.124596E-9
1.549876E+3,	85.639289E-9
1.549880E+3,	86.270811E-9
1.549884E+3,	87.228219E-9
1.549888E+3,	88.022983E-9
1.549892E+3,	88.557091E-9
1.549896E+3,	89.104790E-9
1.549900E+3,	89.519947E-9
1.549904E+3,	89.642351E-9
1.549908E+3,	89.437325E-9
1.549912E+3,	88.984567E-9
1.549916E+3,	88.257195E-9
1.549920E+3,	87.144065E-9
1.549924E+3,	85.871939E-9
1.549928E+3,	84.652332E-9
1.549932E+3,	83.187703E-9
1.549936E+3,	81.675140E-9
1.549940E+3,	79.991726E-9
1.549944E+3,	78.568272E-9
1.549948E+3,	77.580709E-9
1.549952E+3,	76.611823E-9
1.549956E+3,	75.808299E-9
1.549960E+3,	75.183589E-9
1.549964E+3,	74.884482E-9
1.549968E+3,	74.842603E-9
1.549972E+3,	75.074915E-9
1.549976E+3,	75.662311E-9
1.549980E+3,	76.435002E-9
1.549984E+3,	77.236444E-9
1.549988E+3,	78.325540E-9
1.549992E+3,	79.580363E-9
1.549996E+3,	81.183320E-9
1.550000E+3,	82.724743E-9
1.550004E+3,	83.805052E-9
1.550008E+3,	84.935931E-9
1.550012E+3,	86.077918E-9
1.550016E+3,	86.844607E-9
1.550020E+3,	87.184091E-9
1.550024E+3,	87.192019E-9
1.550028E+3,	86.948966E-9
1.550032E+3,	86.164141E-9
1.550036E+3,	85.140891E-9
1.550040E+3,	84.086450E-9
1.550044E+3,	82.838345E-9
1.550048E+3,	81.333571E-9
1.550052E+3,	80.049325E-9
1.550056E+3,	79.121570E-9
1.550060E+3,	78.168704E-9
1.550064E+3,	77.279062E-9
1.550068E+3,	76.612072E-9
1.550072E+3,	76.248079E-9
1.550076E+3,	76.250633E-9
1.550080E+3,	76.393738E-9
1.550084E+3,	76.851326E-9
1.550088E+3,	77.499032E-9
1.550092E+3,	78.323838E-9
1.550096E+3,	79.418515E-9
1.550100E+3,	80.642293E-9
1.550104E+3,	82.272925E-9
1.550108E+3,	83.819640E-9
1.550112E+3,	84.994950E-9
1.550116E+3,	86.310212E-9
1.550120E+3,	87.779056E-9
1.550124E+3,	88.821869E-9
1.550128E+3,	89.437079E-9
1.550132E+3,	89.798011E-9
1.550136E+3,	89.926795E-9
1.550140E+3,	89.618635E-9
1.550144E+3,	88.966923E-9
1.550148E+3,	88.221612E-9
1.550152E+3,	87.213152E-9
1.550156E+3,	85.892629E-9
1.550160E+3,	84.672627E-9
1.550164E+3,	83.786277E-9
1.550168E+3,	82.875409E-9
1.550172E+3,	81.909503E-9
1.550176E+3,	81.241167E-9
1.550180E+3,	80.933775E-9
1.550184E+3,	80.851549E-9
1.550188E+3,	80.938119E-9
1.550192E+3,	81.351479E-9
1.550196E+3,	81.980358E-9
1.550200E+3,	82.630095E-9
1.550204E+3,	83.572931E-9
1.550208E+3,	84.937263E-9
1.550212E+3,	86.144386E-9
1.550216E+3,	87.117830E-9
1.550220E+3,	88.250057E-9
1.550224E+3,	89.375425E-9
1.550228E+3,	90.433914E-9
1.550232E+3,	91.211658E-9
1.550236E+3,	91.671286E-9
1.550240E+3,	91.976952E-9
1.550244E+3,	91.922590E-9
1.550248E+3,	91.493401E-9
1.550252E+3,	90.868961E-9
1.550256E+3,	89.768854E-9
1.550260E+3,	88.515335E-9
1.550264E+3,	86.666793E-9
1.550268E+3,	84.862317E-9
1.550272E+3,	83.348652E-9
1.550276E+3,	81.649321E-9
1.550280E+3,	79.744333E-9
1.550284E+3,	78.283168E-9
1.550288E+3,	77.337247E-9
1.550292E+3,	76.560258E-9
1.550296E+3,	76.041915E-9
1.550300E+3,	75.828206E-9
1.550304E+3,	75.948926E-9
1.550308E+3,	76.236980E-9
1.550312E+3,	76.884688E-9
1.550316E+3,	77.827319E-9
1.550320E+3,	78.834494E-9
1.550324E+3,	79.713867E-9
1.550328E+3,	80.779204E-9
1.550332E+3,	81.914157E-9
1.550336E+3,	83.222755E-9
1.550340E+3,	84.269061E-9
1.550344E+3,	85.056455E-9
1.550348E+3,	85.730666E-9
1.550352E+3,	86.246693E-9
1.550356E+3,	86.458206E-9
1.550360E+3,	86.441932E-9
1.550364E+3,	86.124276E-9
1.550368E+3,	85.380934E-9
1.550372E+3,	84.399699E-9
1.550376E+3,	83.515725E-9
1.550380E+3,	82.382617E-9
1.550384E+3,	81.213736E-9
1.550388E+3,	79.734214E-9
1.550392E+3,	78.478751E-9
1.550396E+3,	77.596427E-9
1.550400E+3,	76.775217E-9
1.550404E+3,	76.158657E-9
1.550408E+3,	75.876048E-9
1.550412E+3,	75.787987E-9
1.550416E+3,	75.947871E-9
1.550420E+3,	76.256179E-9
1.550424E+3,	76.917233E-9
1.550428E+3,	77.603035E-9
1.550432E+3,	78.269555E-9
1.550436E+3,	79.025741E-9
1.550440E+3,	80.095159E-9
1.550444E+3,	80.989382E-9
1.550448E+3,	81.621780E-9
1.550452E+3,	82.224660E-9
1.550456E+3,	82.721390E-9
1.550460E+3,	83.195916E-9
1.550464E+3,	83.406694E-9
1.550468E+3,	83.427092E-9
1.550472E+3,	83.244104E-9
1.550476E+3,	82.815825E-9
1.550480E+3,	82.207075E-9
1.550484E+3,	81.586992E-9
1.550488E+3,	80.793257E-9
1.550492E+3,	79.864124E-9
1.550496E+3,	78.828789E-9
1.550500E+3,	77.932770E-9
1.550504E+3,	77.318418E-9
1.550508E+3,	76.788277E-9
1.550512E+3,	76.477740E-9
1.550516E+3,	76.451068E-9
1.550520E+3,	76.720187E-9
1.550524E+3,	77.231045E-9
1.550528E+3,	77.898919E-9
1.550532E+3,	78.977399E-9
1.550536E+3,	80.055639E-9
1.550540E+3,	80.960148E-9
1.550544E+3,	82.063275E-9
1.550548E+3,	83.354197E-9
1.550552E+3,	84.416057E-9
1.550556E+3,	85.186902E-9
1.550560E+3,	85.930454E-9
1.550564E+3,	86.489617E-9
1.550568E+3,	86.977011E-9
1.550572E+3,	87.169786E-9
1.550576E+3,	87.112864E-9
1.550580E+3,	86.950621E-9
1.550584E+3,	86.486307E-9
1.550588E+3,	85.844031E-9
1.550592E+3,	85.102734E-9
1.550596E+3,	84.232433E-9
1.550600E+3,	83.218013E-9
1.550604E+3,	81.941835E-9
1.550608E+3,	80.834303E-9
1.550612E+3,	79.994814E-9
1.550616E+3,	79.219393E-9
1.550620E+3,	78.435279E-9
1.550624E+3,	77.952203E-9
1.550628E+3,	77.823235E-9
1.550632E+3,	77.914531E-9
1.550636E+3,	78.400823E-9
1.550640E+3,	79.107306E-9
1.550644E+3,	79.824392E-9
1.550648E+3,	80.779639E-9
1.550652E+3,	81.781377E-9
1.550656E+3,	83.228576E-9
1.550660E+3,	84.467514E-9
1.550664E+3,	85.408759E-9
1.550668E+3,	86.312796E-9
1.550672E+3,	87.268327E-9
1.550676E+3,	88.001071E-9
1.550680E+3,	88.377729E-9
1.550684E+3,	88.592277E-9
1.550688E+3,	88.579128E-9
1.550692E+3,	88.338249E-9
1.550696E+3,	87.844408E-9
1.550700E+3,	87.304111E-9
1.550704E+3,	86.528528E-9
1.550708E+3,	85.323209E-9
1.550712E+3,	84.241409E-9
1.550716E+3,	83.349993E-9
1.550720E+3,	82.396854E-9
1.550724E+3,	81.469054E-9
1.550728E+3,	80.517243E-9
1.550732E+3,	79.908441E-9
1.550736E+3,	79.642680E-9
1.550740E+3,	79.590987E-9
1.550744E+3,	79.905690E-9
1.550748E+3,	80.477624E-9
1.550752E+3,	81.172816E-9
1.550756E+3,	82.153687E-9
1.550760E+3,	83.325146E-9
1.550764E+3,	84.891271E-9
1.550768E+3,	86.280760E-9
1.550772E+3,	87.382241E-9
1.550776E+3,	88.510820E-9
1.550780E+3,	89.637718E-9
1.550784E+3,	90.440753E-9
1.550788E+3,	90.810746E-9
1.550792E+3,	91.003342E-9
1.550796E+3,	90.878908E-9
1.550800E+3,	90.416137E-9
1.550804E+3,	89.629726E-9
1.550808E+3,	88.828132E-9
1.550812E+3,	87.694350E-9
1.550816E+3,	86.226594E-9
1.550820E+3,	84.658084E-9
1.550824E+3,	83.352209E-9
1.550828E+3,	81.952606E-9
1.550832E+3,	80.596142E-9
1.550836E+3,	79.065353E-9
1.550840E+3,	77.869754E-9
1.550844E+3,	77.090572E-9
1.550848E+3,	76.507705E-9
1.550852E+3,	76.171547E-9
1.550856E+3,	76.209045E-9
1.550860E+3,	76.602201E-9
1.550864E+3,	77.309324E-9
1.550868E+3,	78.437802E-9
1.550872E+3,	79.696882E-9
1.550876E+3,	80.862361E-9
1.550880E+3,	82.146935E-9
1.550884E+3,	83.416401E-9
1.550888E+3,	84.746109E-9
1.550892E+3,	85.745857E-9
1.550896E+3,	86.388519E-9
1.550900E+3,	86.808058E-9
1.550904E+3,	86.901152E-9
1.550908E+3,	86.638705E-9
1.550912E+3,	86.183316E-9
1.550916E+3,	85.502763E-9
1.550920E+3,	84.501799E-9
1.550924E+3,	82.975276E-9
1.550928E+3,	81.382353E-9
1.550932E+3,	80.069286E-9
1.550936E+3,	78.522770E-9
1.550940E+3,	76.601920E-9
1.550944E+3,	74.945039E-9
1.550948E+3,	73.623567E-9
1.550952E+3,	72.280005E-9
1.550956E+3,	71.138391E-9
1.550960E+3,	70.173935E-9
1.550964E+3,	69.555853E-9
1.550968E+3,	69.319757E-9
1.550972E+3,	69.380696E-9
1.550976E+3,	69.886721E-9
1.550980E+3,	70.683370E-9
1.550984E+3,	71.530783E-9
1.550988E+3,	72.554562E-9
1.550992E+3,	73.759454E-9
1.550996E+3,	75.319552E-9
1.551000E+3,	76.681012E-9
1.551004E+3,	77.597202E-9
1.551008E+3,	78.465831E-9
1.551012E+3,	79.155163E-9
1.551016E+3,	79.519823E-9
1.551020E+3,	79.496879E-9
1.551024E+3,	79.287299E-9
1.551028E+3,	78.632729E-9
1.551032E+3,	77.826447E-9
1.551036E+3,	77.061517E-9
1.551040E+3,	76.063655E-9
1.551044E+3,	74.996760E-9
1.551048E+3,	73.572624E-9
1.551052E+3,	72.310744E-9
1.551056E+3,	71.341349E-9
1.551060E+3,	70.341774E-9
1.551064E+3,	69.254643E-9
1.551068E+3,	68.532962E-9
1.551072E+3,	68.146918E-9
1.551076E+3,	67.920752E-9
1.551080E+3,	67.953271E-9
1.551084E+3,	68.344048E-9
1.551088E+3,	68.940283E-9
1.551092E+3,	69.753114E-9
1.551096E+3,	70.818641E-9
1.551100E+3,	72.266493E-9
1.551104E+3,	73.603351E-9
1.551108E+3,	74.732588E-9
1.551112E+3,	75.884949E-9
1.551116E+3,	77.103900E-9
1.551120E+3,	77.922558E-9
1.551124E+3,	78.369042E-9
1.551128E+3,	78.629948E-9
1.551132E+3,	78.619680E-9
1.551136E+3,	78.261876E-9
1.551140E+3,	77.653690E-9
1.551144E+3,	76.799952E-9
1.551148E+3,	75.569059E-9
1.551152E+3,	74.357011E-9
1.551156E+3,	73.201391E-9
1.551160E+3,	71.837477E-9
1.551164E+3,	70.599528E-9
1.551168E+3,	69.242450E-9
1.551172E+3,	68.123327E-9
1.551176E+3,	67.318829E-9
1.551180E+3,	66.532561E-9
1.551184E+3,	65.877589E-9
1.551188E+3,	65.602014E-9
1.551192E+3,	65.614877E-9
1.551196E+3,	65.871333E-9
1.551200E+3,	66.481974E-9
1.551204E+3,	67.268358E-9
1.551208E+3,	68.106207E-9
1.551212E+3,	69.181909E-9
1.551216E+3,	70.388275E-9
1.551220E+3,	71.866342E-9
1.551224E+3,	73.204452E-9
1.551228E+3,	74.148626E-9
1.551232E+3,	75.094314E-9
1.551236E+3,	75.981568E-9
1.551240E+3,	76.597018E-9
1.551244E+3,	76.878069E-9
1.551248E+3,	76.903615E-9
1.551252E+3,	76.645553E-9
1.551256E+3,	76.306808E-9
1.551260E+3,	75.868203E-9
1.551264E+3,	75.226651E-9
1.551268E+3,	74.583392E-9
1.551272E+3,	73.823070E-9
1.551276E+3,	73.210156E-9
1.551280E+3,	72.681340E-9
1.551284E+3,	72.147844E-9
1.551288E+3,	71.744642E-9
1.551292E+3,	71.475001E-9
1.551296E+3,	71.365414E-9
1.551300E+3,	71.353490E-9
1.551304E+3,	71.598627E-9
1.551308E+3,	71.967990E-9
1.551312E+3,	72.379235E-9
1.551316E+3,	72.904182E-9
1.551320E+3,	73.525748E-9
1.551324E+3,	74.368343E-9
1.551328E+3,	75.104194E-9
1.551332E+3,	75.640578E-9
1.551336E+3,	76.192582E-9
1.551340E+3,	76.615122E-9
1.551344E+3,	76.735803E-9
1.551348E+3,	76.691504E-9
1.551352E+3,	76.445302E-9
1.551356E+3,	75.768224E-9
1.551360E+3,	74.957689E-9
1.551364E+3,	74.157229E-9
1.551368E+3,	73.051745E-9
1.551372E+3,	71.753325E-9
1.551376E+3,	70.152405E-9
1.551380E+3,	68.806833E-9
1.551384E+3,	67.807088E-9
1.551388E+3,	66.800320E-9
1.551392E+3,	65.753637E-9
1.551396E+3,	65.006024E-9
1.551400E+3,	64.582669E-9
1.551404E+3,	64.302948E-9
1.551408E+3,	64.278316E-9
1.551412E+3,	64.453315E-9
1.551416E+3,	64.791755E-9
1.551420E+3,	65.275813E-9
1.551424E+3,	66.151546E-9
1.551428E+3,	67.099230E-9
1.551432E+3,	67.912693E-9
1.551436E+3,	68.793096E-9
1.551440E+3,	69.701823E-9
1.551444E+3,	70.705636E-9
1.551448E+3,	71.618612E-9
1.551452E+3,	72.311174E-9
1.551456E+3,	72.870214E-9
1.551460E+3,	73.197815E-9
1.551464E+3,	73.224357E-9
1.551468E+3,	73.046047E-9
1.551472E+3,	72.618934E-9
1.551476E+3,	71.786232E-9
1.551480E+3,	70.815592E-9
1.551484E+3,	69.926230E-9
1.551488E+3,	68.787705E-9
1.551492E+3,	67.675994E-9
1.551496E+3,	66.312386E-9
1.551500E+3,	65.126463E-9
1.551504E+3,	64.296679E-9
1.551508E+3,	63.562669E-9
1.551512E+3,	63.012335E-9
1.551516E+3,	62.723384E-9
1.551520E+3,	62.647992E-9
1.551524E+3,	62.776162E-9
1.551528E+3,	63.132784E-9
1.551532E+3,	63.597222E-9
1.551536E+3,	64.110199E-9
1.551540E+3,	64.750330E-9
1.551544E+3,	65.401151E-9
1.551548E+3,	66.271225E-9
1.551552E+3,	67.085913E-9
1.551556E+3,	67.675313E-9
1.551560E+3,	68.332335E-9
1.551564E+3,	68.896158E-9
1.551568E+3,	69.238031E-9
1.551572E+3,	69.344367E-9
1.551576E+3,	69.314586E-9
1.551580E+3,	69.004010E-9
1.551584E+3,	68.471915E-9
1.551588E+3,	67.822361E-9
1.551592E+3,	67.023080E-9
1.551596E+3,	66.148085E-9
1.551600E+3,	64.998313E-9
1.551604E+3,	63.889576E-9
1.551608E+3,	63.053955E-9
1.551612E+3,	62.150417E-9
1.551616E+3,	61.375661E-9
1.551620E+3,	60.859003E-9
1.551624E+3,	60.716984E-9
1.551628E+3,	60.664281E-9
1.551632E+3,	60.897282E-9
1.551636E+3,	61.336440E-9
1.551640E+3,	61.893061E-9
1.551644E+3,	62.578596E-9
1.551648E+3,	63.491456E-9
1.551652E+3,	64.397810E-9
1.551656E+3,	65.154580E-9
1.551660E+3,	65.996507E-9
1.551664E+3,	66.712584E-9
1.551668E+3,	67.466644E-9
1.551672E+3,	68.026611E-9
1.551676E+3,	68.321017E-9
1.551680E+3,	68.507186E-9
1.551684E+3,	68.464345E-9
1.551688E+3,	68.237911E-9
1.551692E+3,	67.797007E-9
1.551696E+3,	67.207443E-9
1.551700E+3,	66.201834E-9
1.551704E+3,	65.171863E-9
1.551708E+3,	64.180898E-9
1.551712E+3,	62.989562E-9
1.551716E+3,	61.805154E-9
1.551720E+3,	60.516331E-9
1.551724E+3,	59.481671E-9
1.551728E+3,	58.872616E-9
1.551732E+3,	58.438850E-9
1.551736E+3,	58.196768E-9
1.551740E+3,	58.311992E-9
1.551744E+3,	58.643808E-9
1.551748E+3,	59.302836E-9
1.551752E+3,	60.296305E-9
1.551756E+3,	61.390103E-9
1.551760E+3,	62.339613E-9
1.551764E+3,	63.452372E-9
1.551768E+3,	64.579687E-9
1.551772E+3,	65.991921E-9
1.551776E+3,	67.160076E-9
1.551780E+3,	67.934655E-9
1.551784E+3,	68.621297E-9
1.551788E+3,	69.301245E-9
1.551792E+3,	69.716006E-9
1.551796E+3,	69.882578E-9
1.551800E+3,	69.728446E-9
1.551804E+3,	69.367725E-9
1.551808E+3,	68.777291E-9
1.551812E+3,	68.138601E-9
1.551816E+3,	67.270187E-9
1.551820E+3,	66.295234E-9
1.551824E+3,	64.988542E-9
1.551828E+3,	63.761358E-9
1.551832E+3,	62.813079E-9
1.551836E+3,	61.940177E-9
1.551840E+3,	61.122779E-9
1.551844E+3,	60.513609E-9
1.551848E+3,	60.253449E-9
1.551852E+3,	60.274703E-9
1.551856E+3,	60.631413E-9
1.551860E+3,	61.213221E-9
1.551864E+3,	61.900924E-9
1.551868E+3,	62.753981E-9
1.551872E+3,	63.954649E-9
1.551876E+3,	65.081983E-9
1.551880E+3,	65.964402E-9
1.551884E+3,	66.989225E-9
1.551888E+3,	67.834397E-9
1.551892E+3,	68.587544E-9
1.551896E+3,	69.051075E-9
1.551900E+3,	69.314659E-9
1.551904E+3,	69.369927E-9
1.551908E+3,	69.035915E-9
1.551912E+3,	68.524510E-9
1.551916E+3,	67.939120E-9
1.551920E+3,	67.147924E-9
1.551924E+3,	65.970186E-9
1.551928E+3,	64.790480E-9
1.551932E+3,	63.715221E-9
1.551936E+3,	62.430233E-9
1.551940E+3,	61.101805E-9
1.551944E+3,	59.607350E-9
1.551948E+3,	58.383730E-9
1.551952E+3,	57.487293E-9
1.551956E+3,	56.658418E-9
1.551960E+3,	56.022378E-9
1.551964E+3,	55.785190E-9
1.551968E+3,	55.862534E-9
1.551972E+3,	56.128346E-9
1.551976E+3,	56.731710E-9
1.551980E+3,	57.577273E-9
1.551984E+3,	58.340320E-9
1.551988E+3,	59.316460E-9
1.551992E+3,	60.314109E-9
1.551996E+3,	61.340402E-9
1.552000E+3,	62.101096E-9
1.552004E+3,	62.686681E-9
1.552008E+3,	63.195951E-9
1.552012E+3,	63.459631E-9
1.552016E+3,	63.459105E-9
1.552020E+3,	63.252120E-9
1.552024E+3,	62.792819E-9
1.552028E+3,	62.121787E-9
1.552032E+3,	61.293559E-9
1.552036E+3,	60.418635E-9
1.552040E+3,	59.302842E-9
1.552044E+3,	57.915620E-9
1.552048E+3,	56.643601E-9
1.552052E+3,	55.722988E-9
1.552056E+3,	54.693494E-9
1.552060E+3,	53.502066E-9
1.552064E+3,	52.571211E-9
1.552068E+3,	52.110844E-9
1.552072E+3,	51.775742E-9
1.552076E+3,	51.630490E-9
1.552080E+3,	51.757598E-9
1.552084E+3,	52.174790E-9
1.552088E+3,	52.846556E-9
1.552092E+3,	53.703581E-9
1.552096E+3,	54.791333E-9
1.552100E+3,	55.885733E-9
1.552104E+3,	56.874064E-9
1.552108E+3,	57.856905E-9
1.552112E+3,	58.973502E-9
1.552116E+3,	59.787080E-9
1.552120E+3,	60.282575E-9
1.552124E+3,	60.615419E-9
1.552128E+3,	60.749536E-9
1.552132E+3,	60.627211E-9
1.552136E+3,	60.304467E-9
1.552140E+3,	59.819334E-9
1.552144E+3,	59.023035E-9
1.552148E+3,	58.196407E-9
1.552152E+3,	57.408561E-9
1.552156E+3,	56.567137E-9
1.552160E+3,	55.568526E-9
1.552164E+3,	54.644105E-9
1.552168E+3,	53.944298E-9
1.552172E+3,	53.280187E-9
1.552176E+3,	52.655469E-9
1.552180E+3,	52.338984E-9
1.552184E+3,	52.262324E-9
1.552188E+3,	52.300118E-9
1.552192E+3,	52.574755E-9
1.552196E+3,	53.240855E-9
1.552200E+3,	54.098439E-9
1.552204E+3,	54.993994E-9
1.552208E+3,	56.088087E-9
1.552212E+3,	57.554173E-9
1.552216E+3,	58.947680E-9
1.552220E+3,	60.108107E-9
1.552224E+3,	61.362616E-9
1.552228E+3,	62.564169E-9
1.552232E+3,	63.380696E-9
1.552236E+3,	63.770520E-9
1.552240E+3,	64.019433E-9
1.552244E+3,	64.023504E-9
1.552248E+3,	63.699419E-9
1.552252E+3,	63.192720E-9
1.552256E+3,	62.505466E-9
1.552260E+3,	61.468411E-9
1.552264E+3,	60.450911E-9
1.552268E+3,	59.546198E-9
1.552272E+3,	58.519570E-9
1.552276E+3,	57.175704E-9
1.552280E+3,	55.998639E-9
1.552284E+3,	55.203758E-9
1.552288E+3,	54.401980E-9
1.552292E+3,	53.734943E-9
1.552296E+3,	53.045497E-9
1.552300E+3,	52.665732E-9
1.552304E+3,	52.616843E-9
1.552308E+3,	52.731455E-9
1.552312E+3,	53.133608E-9
1.552316E+3,	53.678525E-9
1.552320E+3,	54.243600E-9
1.552324E+3,	55.052011E-9
1.552328E+3,	56.082220E-9
1.552332E+3,	57.047656E-9
1.552336E+3,	57.806160E-9
1.552340E+3,	58.454757E-9
1.552344E+3,	59.098477E-9
1.552348E+3,	59.401241E-9
1.552352E+3,	59.382816E-9
1.552356E+3,	59.193129E-9
1.552360E+3,	58.606105E-9
1.552364E+3,	57.911258E-9
1.552368E+3,	57.187866E-9
1.552372E+3,	56.269122E-9
1.552376E+3,	55.012021E-9
1.552380E+3,	53.870052E-9
1.552384E+3,	52.996522E-9
1.552388E+3,	52.042660E-9
1.552392E+3,	51.188226E-9
1.552396E+3,	50.427826E-9
1.552400E+3,	49.891428E-9
1.552404E+3,	49.512774E-9
1.552408E+3,	49.266081E-9
1.552412E+3,	49.229633E-9
1.552416E+3,	49.420284E-9
1.552420E+3,	49.751501E-9
1.552424E+3,	50.205381E-9
1.552428E+3,	50.990278E-9
1.552432E+3,	51.893192E-9
1.552436E+3,	52.696385E-9
1.552440E+3,	53.649683E-9
1.552444E+3,	54.698487E-9
1.552448E+3,	55.553563E-9
1.552452E+3,	56.129338E-9
1.552456E+3,	56.603883E-9
1.552460E+3,	56.917628E-9
1.552464E+3,	56.944579E-9
1.552468E+3,	56.682520E-9
1.552472E+3,	56.202204E-9
1.552476E+3,	55.378213E-9
1.552480E+3,	54.464614E-9
1.552484E+3,	53.570953E-9
1.552488E+3,	52.504298E-9
1.552492E+3,	51.384328E-9
1.552496E+3,	50.124391E-9
1.552500E+3,	49.086310E-9
1.552504E+3,	48.337429E-9
1.552508E+3,	47.607558E-9
1.552512E+3,	46.946604E-9
1.552516E+3,	46.491743E-9
1.552520E+3,	46.357351E-9
1.552524E+3,	46.403671E-9
1.552528E+3,	46.592786E-9
1.552532E+3,	46.965460E-9
1.552536E+3,	47.386712E-9
1.552540E+3,	47.988820E-9
1.552544E+3,	48.874534E-9
1.552548E+3,	49.682767E-9
1.552552E+3,	50.391807E-9
1.552556E+3,	51.129586E-9
1.552560E+3,	51.907342E-9
1.552564E+3,	52.485663E-9
1.552568E+3,	52.744914E-9
1.552572E+3,	52.888558E-9
1.552576E+3,	52.759868E-9
1.552580E+3,	52.436879E-9
1.552584E+3,	51.947719E-9
1.552588E+3,	51.255780E-9
1.552592E+3,	50.378999E-9
1.552596E+3,	49.193913E-9
1.552600E+3,	48.049767E-9
1.552604E+3,	47.173147E-9
1.552608E+3,	46.182722E-9
1.552612E+3,	45.069639E-9
1.552616E+3,	44.150543E-9
1.552620E+3,	43.488169E-9
1.552624E+3,	42.961325E-9
1.552628E+3,	42.533451E-9
1.552632E+3,	42.331595E-9
1.552636E+3,	42.318657E-9
1.552640E+3,	42.421421E-9
1.552644E+3,	42.766825E-9
1.552648E+3,	43.193764E-9
1.552652E+3,	43.641080E-9
1.552656E+3,	44.205365E-9
1.552660E+3,	44.997922E-9
1.552664E+3,	45.714923E-9
1.552668E+3,	46.311844E-9
1.552672E+3,	46.915420E-9
1.552676E+3,	47.481247E-9
1.552680E+3,	47.915151E-9
1.552684E+3,	48.097375E-9
1.552688E+3,	48.139205E-9
1.552692E+3,	47.995677E-9
1.552696E+3,	47.598956E-9
1.552700E+3,	47.045773E-9
1.552704E+3,	46.453187E-9
1.552708E+3,	45.736979E-9
1.552712E+3,	44.908249E-9
1.552716E+3,	44.129869E-9
1.552720E+3,	43.550504E-9
1.552724E+3,	42.970540E-9
1.552728E+3,	42.331166E-9
1.552732E+3,	41.923200E-9
1.552736E+3,	41.716812E-9
1.552740E+3,	41.668597E-9
1.552744E+3,	41.725913E-9
1.552748E+3,	41.947367E-9
1.552752E+3,	42.234417E-9
1.552756E+3,	42.696495E-9
1.552760E+3,	43.387961E-9
1.552764E+3,	44.091119E-9
1.552768E+3,	44.603752E-9
1.552772E+3,	45.236500E-9
1.552776E+3,	45.955316E-9
1.552780E+3,	46.539816E-9
1.552784E+3,	46.881478E-9
1.552788E+3,	47.130644E-9
1.552792E+3,	47.225824E-9
1.552796E+3,	47.185976E-9
1.552800E+3,	46.934716E-9
1.552804E+3,	46.567455E-9
1.552808E+3,	45.992333E-9
1.552812E+3,	45.112084E-9
1.552816E+3,	44.216033E-9
1.552820E+3,	43.419898E-9
1.552824E+3,	42.502847E-9
1.552828E+3,	41.380617E-9
1.552832E+3,	40.357482E-9
1.552836E+3,	39.547107E-9
1.552840E+3,	38.786232E-9
1.552844E+3,	38.092441E-9
1.552848E+3,	37.624313E-9
1.552852E+3,	37.309922E-9
1.552856E+3,	37.126354E-9
1.552860E+3,	37.168824E-9
1.552864E+3,	37.300288E-9
1.552868E+3,	37.517440E-9
1.552872E+3,	37.900004E-9
1.552876E+3,	38.376467E-9
1.552880E+3,	38.899702E-9
1.552884E+3,	39.282663E-9
1.552888E+3,	39.716630E-9
1.552892E+3,	40.100352E-9
1.552896E+3,	40.421288E-9
1.552900E+3,	40.603424E-9
1.552904E+3,	40.646359E-9
1.552908E+3,	40.607918E-9
1.552912E+3,	40.314635E-9
1.552916E+3,	39.947737E-9
1.552920E+3,	39.447291E-9
1.552924E+3,	38.831107E-9
1.552928E+3,	37.977974E-9
1.552932E+3,	37.064956E-9
1.552936E+3,	36.337602E-9
1.552940E+3,	35.458608E-9
1.552944E+3,	34.539337E-9
1.552948E+3,	33.737385E-9
1.552952E+3,	33.207704E-9
1.552956E+3,	32.673397E-9
1.552960E+3,	32.184611E-9
1.552964E+3,	31.854896E-9
1.552968E+3,	31.742697E-9
1.552972E+3,	31.665034E-9
1.552976E+3,	31.774873E-9
1.552980E+3,	31.969052E-9
1.552984E+3,	32.202444E-9
1.552988E+3,	32.484613E-9
1.552992E+3,	32.890819E-9
1.552996E+3,	33.238301E-9
1.553000E+3,	33.548083E-9
1.553004E+3,	33.763793E-9
1.553008E+3,	33.939754E-9
1.553012E+3,	34.026082E-9
1.553016E+3,	34.013588E-9
1.553020E+3,	33.858582E-9
1.553024E+3,	33.556235E-9
1.553028E+3,	33.117186E-9
1.553032E+3,	32.722804E-9
1.553036E+3,	32.152573E-9
1.553040E+3,	31.370398E-9
1.553044E+3,	30.508963E-9
1.553048E+3,	29.763306E-9
1.553052E+3,	28.941354E-9
1.553056E+3,	27.960177E-9
1.553060E+3,	27.140334E-9
1.553064E+3,	26.503983E-9
1.553068E+3,	25.804037E-9
1.553072E+3,	25.103429E-9
1.553076E+3,	24.600345E-9
1.553080E+3,	24.303152E-9
1.553084E+3,	24.100239E-9
1.553088E+3,	23.983141E-9
1.553092E+3,	23.979004E-9
1.553096E+3,	24.061631E-9
1.553100E+3,	24.176833E-9
1.553104E+3,	24.395468E-9
1.553108E+3,	24.591649E-9
1.553112E+3,	24.717723E-9
1.553116E+3,	24.849143E-9
1.553120E+3,	24.917214E-9
1.553124E+3,	24.880580E-9
1.553128E+3,	24.808508E-9
1.553132E+3,	24.664161E-9
1.553136E+3,	24.384580E-9
1.553140E+3,	24.064930E-9
1.553144E+3,	23.703129E-9
1.553148E+3,	23.241451E-9
1.553152E+3,	22.591585E-9
1.553156E+3,	21.944625E-9
1.553160E+3,	21.437296E-9
1.553164E+3,	20.849280E-9
1.553168E+3,	20.117755E-9
1.553172E+3,	19.505852E-9
1.553176E+3,	19.022704E-9
1.553180E+3,	18.562449E-9
1.553184E+3,	18.096622E-9
1.553188E+3,	17.799068E-9
1.553192E+3,	17.595382E-9
1.553196E+3,	17.445996E-9
1.553200E+3,	17.386750E-9
1.553204E+3,	17.369571E-9
1.553208E+3,	17.395319E-9
1.553212E+3,	17.492624E-9
1.553216E+3,	17.611021E-9
1.553220E+3,	17.713394E-9
1.553224E+3,	17.742346E-9
1.553228E+3,	17.784073E-9
1.553232E+3,	17.777456E-9
1.553236E+3,	17.691510E-9
1.553240E+3,	17.590684E-9
1.553244E+3,	17.391067E-9
1.553248E+3,	17.129039E-9
1.553252E+3,	16.769648E-9
1.553256E+3,	16.459345E-9
1.553260E+3,	16.053619E-9
1.553264E+3,	15.573521E-9
1.553268E+3,	15.098455E-9
1.553272E+3,	14.730786E-9
1.553276E+3,	14.317700E-9
1.553280E+3,	13.838129E-9
1.553284E+3,	13.406709E-9
1.553288E+3,	13.081837E-9
1.553292E+3,	12.772440E-9
1.553296E+3,	12.489404E-9
1.553300E+3,	12.283572E-9
1.553304E+3,	12.173168E-9
1.553308E+3,	12.092965E-9
1.553312E+3,	12.053590E-9
1.553316E+3,	12.070533E-9
1.553320E+3,	12.158652E-9
1.553324E+3,	12.237652E-9
1.553328E+3,	12.343916E-9
1.553332E+3,	12.431196E-9
1.553336E+3,	12.466075E-9
1.553340E+3,	12.491342E-9
1.553344E+3,	12.493566E-9
1.553348E+3,	12.432634E-9
1.553352E+3,	12.366247E-9
1.553356E+3,	12.209654E-9
1.553360E+3,	11.987611E-9
1.553364E+3,	11.749738E-9
1.553368E+3,	11.515854E-9
1.553372E+3,	11.244099E-9
1.553376E+3,	10.943917E-9
1.553380E+3,	10.611537E-9
1.553384E+3,	10.321804E-9
1.553388E+3,	10.012357E-9
1.553392E+3,	9.626184E-9
1.553396E+3,	9.300096E-9
1.553400E+3,	9.044693E-9
1.553404E+3,	8.775546E-9
1.553408E+3,	8.535379E-9
1.553412E+3,	8.327135E-9
1.553416E+3,	8.192524E-9
1.553420E+3,	8.072655E-9
1.553424E+3,	7.988500E-9
1.553428E+3,	7.955943E-9
1.553432E+3,	7.918799E-9
1.553436E+3,	7.881224E-9
1.553440E+3,	7.867621E-9
1.553444E+3,	7.843652E-9
1.553448E+3,	7.809550E-9
1.553452E+3,	7.727664E-9
1.553456E+3,	7.625169E-9
1.553460E+3,	7.527738E-9
1.553464E+3,	7.443339E-9
1.553468E+3,	7.277328E-9
1.553472E+3,	7.088849E-9
1.553476E+3,	6.840292E-9
1.553480E+3,	6.681111E-9
1.553484E+3,	6.466226E-9
1.553488E+3,	6.182211E-9
1.553492E+3,	5.952516E-9
1.553496E+3,	5.757491E-9
1.553500E+3,	5.487928E-9
1.553504E+3,	5.265049E-9
1.553508E+3,	5.102364E-9
1.553512E+3,	4.916774E-9
1.553516E+3,	4.714287E-9
1.553520E+3,	4.545578E-9
1.553524E+3,	4.431082E-9
1.553528E+3,	4.334595E-9
1.553532E+3,	4.225575E-9
1.553536E+3,	4.118233E-9
1.553540E+3,	4.079887E-9
1.553544E+3,	4.052277E-9
1.553548E+3,	4.008488E-9
1.553552E+3,	3.953624E-9
1.553556E+3,	3.914245E-9
1.553560E+3,	3.864873E-9
1.553564E+3,	3.821300E-9
1.553568E+3,	3.759494E-9
1.553572E+3,	3.692068E-9
1.553576E+3,	3.609663E-9
1.553580E+3,	3.497068E-9
1.553584E+3,	3.404459E-9
1.553588E+3,	3.326410E-9
1.553592E+3,	3.220061E-9
1.553596E+3,	3.083761E-9
1.553600E+3,	2.960434E-9
1.553604E+3,	2.861226E-9
1.553608E+3,	2.757331E-9
1.553612E+3,	2.642625E-9
1.553616E+3,	2.561136E-9
1.553620E+3,	2.463879E-9
1.553624E+3,	2.382807E-9
1.553628E+3,	2.289412E-9
1.553632E+3,	2.237206E-9
1.553636E+3,	2.182774E-9
1.553640E+3,	2.150456E-9
1.553644E+3,	2.115852E-9
1.553648E+3,	2.090624E-9
1.553652E+3,	2.060288E-9
1.553656E+3,	2.050105E-9
1.553660E+3,	2.017654E-9
1.553664E+3,	1.992285E-9
1.553668E+3,	1.996156E-9
1.553672E+3,	1.977308E-9
1.553676E+3,	1.941790E-9
1.553680E+3,	1.909850E-9
1.553684E+3,	1.880981E-9
1.553688E+3,	1.829113E-9
1.553692E+3,	1.757192E-9
1.553696E+3,	1.711467E-9
1.553700E+3,	1.653939E-9
1.553704E+3,	1.605457E-9
1.553708E+3,	1.554603E-9
1.553712E+3,	1.508611E-9
1.553716E+3,	1.435148E-9
1.553720E+3,	1.392034E-9
1.553724E+3,	1.329752E-9
1.553728E+3,	1.263284E-9
1.553732E+3,	1.249370E-9
1.553736E+3,	1.226852E-9
1.553740E+3,	1.170004E-9
1.553744E+3,	1.142070E-9
1.553748E+3,	1.140521E-9
1.553752E+3,	1.096966E-9
1.553756E+3,	1.086868E-9
1.553760E+3,	1.078469E-9
1.553764E+3,	1.076818E-9
1.553768E+3,	1.081892E-9
1.553772E+3,	1.063326E-9
1.553776E+3,	1.066610E-9
1.553780E+3,	1.055041E-9
1.553784E+3,	1.051245E-9
1.553788E+3,	1.008948E-9
1.553792E+3,	993.020646E-12
1.553796E+3,	967.480029E-12
1.553800E+3,	967.283743E-12
1.553804E+3,	935.901642E-12
1.553808E+3,	908.534358E-12
1.553812E+3,	892.712387E-12
1.553816E+3,	848.592050E-12
1.553820E+3,	835.085829E-12
1.553824E+3,	793.487813E-12
1.553828E+3,	754.405493E-12
1.553832E+3,	719.527715E-12
1.553836E+3,	712.307139E-12
1.553840E+3,	715.202221E-12
1.553844E+3,	684.094202E-12
1.553848E+3,	668.461387E-12
1.553852E+3,	637.729284E-12
1.553856E+3,	629.593525E-12
1.553860E+3,	625.174463E-12
1.553864E+3,	594.464253E-12
1.553868E+3,	581.560709E-12
1.553872E+3,	585.584233E-12
1.553876E+3,	595.286701E-12
1.553880E+3,	569.386327E-12
1.553884E+3,	581.367604E-12
1.553888E+3,	572.356356E-12
1.553892E+3,	533.703831E-12
1.553896E+3,	535.387575E-12
1.553900E+3,	533.555652E-12
1.553904E+3,	525.885624E-12
1.553908E+3,	527.201033E-12
1.553912E+3,	510.378741E-12
1.553916E+3,	494.373360E-12
1.553920E+3,	494.627310E-12
1.553924E+3,	478.957511E-12
1.553928E+3,	457.170131E-12
1.553932E+3,	422.382360E-12
1.553936E+3,	426.116416E-12
1.553940E+3,	396.828644E-12
1.553944E+3,	379.858172E-12
1.553948E+3,	371.824132E-12
1.553952E+3,	376.637415E-12
1.553956E+3,	369.938920E-12
1.553960E+3,	339.121931E-12
1.553964E+3,	347.841321E-12
1.553968E+3,	319.827293E-12
1.553972E+3,	314.494284E-12
1.553976E+3,	312.956219E-12
1.553980E+3,	317.245611E-12
1.553984E+3,	292.229817E-12
1.553988E+3,	312.511547E-12
1.553992E+3,	308.808540E-12
1.553996E+3,	293.142739E-12
1.554000E+3,	301.578200E-12
1.554004E+3,	287.415335E-12
1.554008E+3,	270.493289E-12
1.554012E+3,	287.067842E-12
1.554016E+3,	272.825382E-12
1.554020E+3,	249.433907E-12
1.554024E+3,	260.504508E-12
1.554028E+3,	229.037742E-12
1.554032E+3,	262.797803E-12
1.554036E+3,	246.987297E-12
1.554040E+3,	235.296966E-12
1.554044E+3,	225.781009E-12
1.554048E+3,	218.864099E-12
1.554052E+3,	192.111584E-12
1.554056E+3,	191.654661E-12
1.554060E+3,	202.578614E-12
1.554064E+3,	185.233446E-12
1.554068E+3,	178.948530E-12
1.554072E+3,	163.950139E-12
1.554076E+3,	150.144997E-12
1.554080E+3,	153.901684E-12
1.554084E+3,	166.342917E-12
1.554088E+3,	149.419011E-12
1.554092E+3,	158.190475E-12
1.554096E+3,	169.829135E-12
1.554100E+3,	141.457159E-12
1.554104E+3,	125.687338E-12
1.554108E+3,	124.741436E-12
1.554112E+3,	142.598745E-12
1.554116E+3,	130.831579E-12
1.554120E+3,	122.186820E-12
1.554124E+3,	141.189275E-12
1.554128E+3,	116.802298E-12
1.554132E+3,	122.051405E-12
1.554136E+3,	114.482707E-12
1.554140E+3,	130.393129E-12
1.554144E+3,	116.783778E-12
1.554148E+3,	121.550612E-12
1.554152E+3,	97.030102E-12
1.554156E+3,	104.457131E-12
1.554160E+3,	114.743481E-12
1.554164E+3,	94.132084E-12
1.554168E+3,	61.502308E-12
1.554172E+3,	74.789672E-12
1.554176E+3,	83.045452E-12
1.554180E+3,	84.519801E-12
1.554184E+3,	80.437388E-12
1.554188E+3,	91.542403E-12
1.554192E+3,	83.639124E-12
1.554196E+3,	88.173538E-12
1.554200E+3,	92.457132E-12
1.554204E+3,	79.891401E-12
1.554208E+3,	54.042069E-12
1.554212E+3,	82.469661E-12
1.554216E+3,	78.440077E-12
1.554220E+3,	69.801071E-12
1.554224E+3,	60.258532E-12
1.554228E+3,	54.468875E-12
1.554232E+3,	67.926109E-12
1.554236E+3,	64.303866E-12
1.554240E+3,	77.329832E-12
1.554244E+3,	84.702862E-12
1.554248E+3,	60.991401E-12
1.554252E+3,	61.924321E-12
1.554256E+3,	50.249543E-12
1.554260E+3,	59.599842E-12
1.554264E+3,	25.284213E-12
1.554268E+3,	32.152703E-12
1.554272E+3,	40.449416E-12
1.554276E+3,	53.743355E-12
1.554280E+3,	52.938397E-12
1.554284E+3,	50.799514E-12
1.554288E+3,	44.468791E-12
1.554292E+3,	47.413001E-12
1.554296E+3,	52.563192E-12
1.554300E+3,	38.045256E-12
1.554304E+3,	50.446767E-12
1.554308E+3,	48.199293E-12
1.554312E+3,	38.985236E-12
1.554316E+3,	42.232139E-12
1.554320E+3,	38.864515E-12
1.554324E+3,	51.472857E-12
1.554328E+3,	33.037313E-12
1.554332E+3,	15.919286E-12
1.554336E+3,	29.495208E-12
1.554340E+3,	45.444648E-12
1.554344E+3,	1.825108E-12
1.554348E+3,	28.119387E-12
1.554352E+3,	35.522030E-12
1.554356E+3,	27.202065E-12
1.554360E+3,	12.412527E-12
1.554364E+3,	0.000000E+0
1.554368E+3,	10.095188E-12
1.554372E+3,	13.054788E-12
1.554376E+3,	3.850059E-12
1.554380E+3,	26.119902E-12
1.554384E+3,	15.090415E-12
1.554388E+3,	35.976667E-12
1.554392E+3,	15.666528E-12
1.554396E+3,	14.979144E-12
1.554400E+3,	52.966704E-12
1.554404E+3,	18.478649E-12
1.554408E+3,	15.443593E-12
1.554412E+3,	1.695902E-12
1.554416E+3,	32.023876E-12
1.554420E+3,	9.209220E-12
1.554424E+3,	0.000000E+0
1.554428E+3,	22.856199E-12
1.554432E+3,	23.785507E-12
1.554436E+3,	22.530697E-12
1.554440E+3,	11.414804E-12
1.554444E+3,	2.922721E-12
1.554448E+3,	36.894433E-12
1.554452E+3,	30.625123E-12
1.554456E+3,	24.496700E-12
1.554460E+3,	9.129188E-12
1.554464E+3,	0.000000E+0
1.554468E+3,	0.000000E+0
1.554472E+3,	2.087001E-12
1.554476E+3,	3.518163E-12
1.554480E+3,	16.517793E-12
1.554484E+3,	1.935374E-12
1.554488E+3,	15.915368E-12
1.554492E+3,	39.203481E-15
1.554496E+3,	7.288292E-12
1.554500E+3,	9.893338E-12
