YOKOGAWA AQ6370D - S/N: 91S206859
#Date: 20/10/2023 Time: 12:51:36,	
A_WL(nm),	A_I(mW)
1.547500E+3,	11.656738E-12
1.547504E+3,	14.769297E-12
1.547508E+3,	7.136562E-12
1.547512E+3,	22.311376E-12
1.547516E+3,	3.298333E-12
1.547520E+3,	17.589946E-12
1.547524E+3,	0.000000E+0
1.547528E+3,	0.000000E+0
1.547532E+3,	19.506306E-12
1.547536E+3,	13.009038E-12
1.547540E+3,	2.864560E-12
1.547544E+3,	5.669482E-12
1.547548E+3,	12.231097E-12
1.547552E+3,	25.719818E-12
1.547556E+3,	2.895789E-12
1.547560E+3,	0.000000E+0
1.547564E+3,	12.430526E-12
1.547568E+3,	3.746252E-12
1.547572E+3,	13.754014E-12
1.547576E+3,	14.624257E-12
1.547580E+3,	10.215801E-12
1.547584E+3,	18.757901E-12
1.547588E+3,	21.477401E-12
1.547592E+3,	11.378986E-12
1.547596E+3,	26.398098E-12
1.547600E+3,	38.713641E-12
1.547604E+3,	3.275625E-12
1.547608E+3,	5.379190E-12
1.547612E+3,	23.277627E-12
1.547616E+3,	19.043829E-12
1.547620E+3,	17.937590E-12
1.547624E+3,	11.485334E-12
1.547628E+3,	0.000000E+0
1.547632E+3,	20.484966E-12
1.547636E+3,	7.987216E-12
1.547640E+3,	0.000000E+0
1.547644E+3,	6.775523E-12
1.547648E+3,	5.379191E-12
1.547652E+3,	1.571011E-12
1.547656E+3,	13.552375E-12
1.547660E+3,	11.340565E-12
1.547664E+3,	33.632251E-12
1.547668E+3,	17.365885E-12
1.547672E+3,	27.448489E-12
1.547676E+3,	16.688522E-12
1.547680E+3,	15.601144E-12
1.547684E+3,	23.767253E-12
1.547688E+3,	17.474692E-12
1.547692E+3,	0.000000E+0
1.547696E+3,	27.108209E-12
1.547700E+3,	35.392222E-12
1.547704E+3,	28.180388E-12
1.547708E+3,	11.998164E-12
1.547712E+3,	13.433861E-12
1.547716E+3,	22.117187E-12
1.547720E+3,	32.522673E-12
1.547724E+3,	39.788902E-12
1.547728E+3,	5.271599E-12
1.547732E+3,	8.083045E-12
1.547736E+3,	9.612002E-12
1.547740E+3,	21.722135E-12
1.547744E+3,	24.588949E-12
1.547748E+3,	15.900677E-12
1.547752E+3,	32.479137E-12
1.547756E+3,	12.441587E-12
1.547760E+3,	15.009035E-12
1.547764E+3,	0.000000E+0
1.547768E+3,	17.605681E-12
1.547772E+3,	8.373259E-12
1.547776E+3,	18.523274E-12
1.547780E+3,	9.395689E-12
1.547784E+3,	0.000000E+0
1.547788E+3,	10.826288E-12
1.547792E+3,	0.000000E+0
1.547796E+3,	15.415887E-12
1.547800E+3,	16.089316E-12
1.547804E+3,	21.324048E-12
1.547808E+3,	15.356528E-12
1.547812E+3,	3.693562E-12
1.547816E+3,	25.206722E-12
1.547820E+3,	0.000000E+0
1.547824E+3,	10.008014E-12
1.547828E+3,	14.598077E-12
1.547832E+3,	27.152712E-12
1.547836E+3,	3.159741E-12
1.547840E+3,	8.137425E-12
1.547844E+3,	9.608880E-12
1.547848E+3,	20.258547E-12
1.547852E+3,	8.647325E-12
1.547856E+3,	22.920168E-12
1.547860E+3,	0.000000E+0
1.547864E+3,	14.162657E-12
1.547868E+3,	20.721547E-12
1.547872E+3,	14.416652E-12
1.547876E+3,	31.609179E-12
1.547880E+3,	23.799974E-12
1.547884E+3,	0.000000E+0
1.547888E+3,	17.863734E-12
1.547892E+3,	8.012337E-12
1.547896E+3,	7.872532E-12
1.547900E+3,	31.145980E-12
1.547904E+3,	23.723776E-12
1.547908E+3,	14.906500E-12
1.547912E+3,	5.853373E-12
1.547916E+3,	22.766486E-12
1.547920E+3,	1.239440E-12
1.547924E+3,	0.000000E+0
1.547928E+3,	9.989873E-12
1.547932E+3,	17.682312E-12
1.547936E+3,	33.595709E-12
1.547940E+3,	44.906456E-12
1.547944E+3,	21.134254E-12
1.547948E+3,	0.000000E+0
1.547952E+3,	20.064326E-12
1.547956E+3,	8.494245E-12
1.547960E+3,	0.000000E+0
1.547964E+3,	6.399124E-12
1.547968E+3,	0.000000E+0
1.547972E+3,	2.116499E-12
1.547976E+3,	27.626513E-12
1.547980E+3,	16.482968E-12
1.547984E+3,	29.136959E-12
1.547988E+3,	2.043912E-12
1.547992E+3,	26.741590E-12
1.547996E+3,	0.000000E+0
1.548000E+3,	9.629238E-12
1.548004E+3,	102.213959E-15
1.548008E+3,	13.821130E-12
1.548012E+3,	38.228464E-12
1.548016E+3,	0.000000E+0
1.548020E+3,	27.262666E-12
1.548024E+3,	17.218529E-12
1.548028E+3,	16.202080E-12
1.548032E+3,	0.000000E+0
1.548036E+3,	1.909076E-12
1.548040E+3,	24.812863E-12
1.548044E+3,	21.592897E-12
1.548048E+3,	12.844162E-12
1.548052E+3,	20.649049E-12
1.548056E+3,	17.657453E-12
1.548060E+3,	15.120287E-12
1.548064E+3,	27.310428E-12
1.548068E+3,	11.921215E-12
1.548072E+3,	17.258804E-12
1.548076E+3,	24.700475E-12
1.548080E+3,	34.379037E-12
1.548084E+3,	29.640567E-12
1.548088E+3,	15.933485E-12
1.548092E+3,	4.545982E-12
1.548096E+3,	9.771271E-12
1.548100E+3,	9.179799E-12
1.548104E+3,	15.788245E-12
1.548108E+3,	17.894231E-12
1.548112E+3,	0.000000E+0
1.548116E+3,	16.238299E-12
1.548120E+3,	0.000000E+0
1.548124E+3,	24.541010E-12
1.548128E+3,	24.962306E-12
1.548132E+3,	0.000000E+0
1.548136E+3,	25.216535E-12
1.548140E+3,	21.275977E-12
1.548144E+3,	32.770788E-12
1.548148E+3,	20.113780E-12
1.548152E+3,	3.585657E-12
1.548156E+3,	0.000000E+0
1.548160E+3,	7.311509E-12
1.548164E+3,	11.978437E-12
1.548168E+3,	19.608527E-12
1.548172E+3,	7.938480E-12
1.548176E+3,	10.564448E-12
1.548180E+3,	26.293984E-12
1.548184E+3,	25.767247E-12
1.548188E+3,	0.000000E+0
1.548192E+3,	0.000000E+0
1.548196E+3,	610.884311E-15
1.548200E+3,	16.721852E-12
1.548204E+3,	7.214383E-12
1.548208E+3,	6.335669E-12
1.548212E+3,	22.345250E-12
1.548216E+3,	0.000000E+0
1.548220E+3,	0.000000E+0
1.548224E+3,	0.000000E+0
1.548228E+3,	8.147282E-12
1.548232E+3,	919.874264E-15
1.548236E+3,	0.000000E+0
1.548240E+3,	10.040019E-12
1.548244E+3,	0.000000E+0
1.548248E+3,	2.881977E-12
1.548252E+3,	16.639645E-12
1.548256E+3,	8.059748E-12
1.548260E+3,	32.749545E-12
1.548264E+3,	0.000000E+0
1.548268E+3,	6.679966E-12
1.548272E+3,	7.442050E-12
1.548276E+3,	16.961882E-12
1.548280E+3,	0.000000E+0
1.548284E+3,	6.422935E-12
1.548288E+3,	0.000000E+0
1.548292E+3,	10.823719E-12
1.548296E+3,	10.410128E-12
1.548300E+3,	14.821514E-12
1.548304E+3,	0.000000E+0
1.548308E+3,	0.000000E+0
1.548312E+3,	23.198717E-12
1.548316E+3,	10.896405E-12
1.548320E+3,	6.480659E-12
1.548324E+3,	4.524518E-12
1.548328E+3,	12.328154E-12
1.548332E+3,	11.262435E-12
1.548336E+3,	0.000000E+0
1.548340E+3,	8.881381E-12
1.548344E+3,	15.123229E-12
1.548348E+3,	29.894735E-12
1.548352E+3,	21.731804E-12
1.548356E+3,	19.859679E-12
1.548360E+3,	12.223624E-12
1.548364E+3,	16.004455E-12
1.548368E+3,	10.244579E-12
1.548372E+3,	34.527699E-12
1.548376E+3,	31.333811E-12
1.548380E+3,	15.276024E-12
1.548384E+3,	32.335851E-12
1.548388E+3,	51.134146E-12
1.548392E+3,	23.063964E-12
1.548396E+3,	49.297956E-12
1.548400E+3,	76.920251E-12
1.548404E+3,	69.794276E-12
1.548408E+3,	71.605017E-12
1.548412E+3,	88.258049E-12
1.548416E+3,	94.748383E-12
1.548420E+3,	97.155650E-12
1.548424E+3,	111.195696E-12
1.548428E+3,	98.584401E-12
1.548432E+3,	113.164897E-12
1.548436E+3,	130.156965E-12
1.548440E+3,	120.809137E-12
1.548444E+3,	140.530681E-12
1.548448E+3,	138.758175E-12
1.548452E+3,	145.522753E-12
1.548456E+3,	163.848302E-12
1.548460E+3,	187.480778E-12
1.548464E+3,	199.657584E-12
1.548468E+3,	175.804794E-12
1.548472E+3,	203.985475E-12
1.548476E+3,	209.465593E-12
1.548480E+3,	240.255998E-12
1.548484E+3,	251.537562E-12
1.548488E+3,	243.683473E-12
1.548492E+3,	269.802272E-12
1.548496E+3,	307.489987E-12
1.548500E+3,	329.072916E-12
1.548504E+3,	331.679694E-12
1.548508E+3,	366.474359E-12
1.548512E+3,	401.087181E-12
1.548516E+3,	422.013552E-12
1.548520E+3,	448.451120E-12
1.548524E+3,	473.404849E-12
1.548528E+3,	500.760433E-12
1.548532E+3,	547.414035E-12
1.548536E+3,	594.235603E-12
1.548540E+3,	619.270186E-12
1.548544E+3,	660.062087E-12
1.548548E+3,	691.715325E-12
1.548552E+3,	720.149404E-12
1.548556E+3,	757.501579E-12
1.548560E+3,	789.082991E-12
1.548564E+3,	825.361267E-12
1.548568E+3,	857.034831E-12
1.548572E+3,	921.949893E-12
1.548576E+3,	966.627937E-12
1.548580E+3,	1.005760E-9
1.548584E+3,	1.042692E-9
1.548588E+3,	1.124523E-9
1.548592E+3,	1.180953E-9
1.548596E+3,	1.237270E-9
1.548600E+3,	1.307406E-9
1.548604E+3,	1.363689E-9
1.548608E+3,	1.452727E-9
1.548612E+3,	1.545635E-9
1.548616E+3,	1.630830E-9
1.548620E+3,	1.733596E-9
1.548624E+3,	1.807549E-9
1.548628E+3,	1.855024E-9
1.548632E+3,	1.984827E-9
1.548636E+3,	2.044570E-9
1.548640E+3,	2.118746E-9
1.548644E+3,	2.193760E-9
1.548648E+3,	2.281171E-9
1.548652E+3,	2.338425E-9
1.548656E+3,	2.396462E-9
1.548660E+3,	2.464388E-9
1.548664E+3,	2.499716E-9
1.548668E+3,	2.586216E-9
1.548672E+3,	2.646483E-9
1.548676E+3,	2.710230E-9
1.548680E+3,	2.791480E-9
1.548684E+3,	2.847085E-9
1.548688E+3,	3.003245E-9
1.548692E+3,	3.104070E-9
1.548696E+3,	3.187500E-9
1.548700E+3,	3.306405E-9
1.548704E+3,	3.450591E-9
1.548708E+3,	3.617164E-9
1.548712E+3,	3.802995E-9
1.548716E+3,	3.969187E-9
1.548720E+3,	4.154249E-9
1.548724E+3,	4.327795E-9
1.548728E+3,	4.584581E-9
1.548732E+3,	4.804108E-9
1.548736E+3,	4.987210E-9
1.548740E+3,	5.190345E-9
1.548744E+3,	5.376585E-9
1.548748E+3,	5.594890E-9
1.548752E+3,	5.763320E-9
1.548756E+3,	5.878656E-9
1.548760E+3,	6.029905E-9
1.548764E+3,	6.191064E-9
1.548768E+3,	6.336540E-9
1.548772E+3,	6.406861E-9
1.548776E+3,	6.506393E-9
1.548780E+3,	6.604524E-9
1.548784E+3,	6.722516E-9
1.548788E+3,	6.824287E-9
1.548792E+3,	6.995829E-9
1.548796E+3,	7.118286E-9
1.548800E+3,	7.241438E-9
1.548804E+3,	7.459057E-9
1.548808E+3,	7.667123E-9
1.548812E+3,	7.917042E-9
1.548816E+3,	8.206045E-9
1.548820E+3,	8.517008E-9
1.548824E+3,	8.908519E-9
1.548828E+3,	9.344744E-9
1.548832E+3,	9.666275E-9
1.548836E+3,	10.055391E-9
1.548840E+3,	10.500188E-9
1.548844E+3,	11.052090E-9
1.548848E+3,	11.517812E-9
1.548852E+3,	11.886067E-9
1.548856E+3,	12.265787E-9
1.548860E+3,	12.682911E-9
1.548864E+3,	13.047544E-9
1.548868E+3,	13.298978E-9
1.548872E+3,	13.564686E-9
1.548876E+3,	13.773410E-9
1.548880E+3,	14.015100E-9
1.548884E+3,	14.168350E-9
1.548888E+3,	14.275404E-9
1.548892E+3,	14.375341E-9
1.548896E+3,	14.532347E-9
1.548900E+3,	14.694161E-9
1.548904E+3,	14.889170E-9
1.548908E+3,	15.107760E-9
1.548912E+3,	15.420268E-9
1.548916E+3,	15.746752E-9
1.548920E+3,	16.200358E-9
1.548924E+3,	16.724099E-9
1.548928E+3,	17.205156E-9
1.548932E+3,	17.791215E-9
1.548936E+3,	18.475945E-9
1.548940E+3,	19.277816E-9
1.548944E+3,	20.076785E-9
1.548948E+3,	20.778545E-9
1.548952E+3,	21.611592E-9
1.548956E+3,	22.529779E-9
1.548960E+3,	23.390549E-9
1.548964E+3,	24.013457E-9
1.548968E+3,	24.679039E-9
1.548972E+3,	25.275376E-9
1.548976E+3,	25.894719E-9
1.548980E+3,	26.375066E-9
1.548984E+3,	26.684178E-9
1.548988E+3,	26.956300E-9
1.548992E+3,	27.184152E-9
1.548996E+3,	27.358194E-9
1.549000E+3,	27.521901E-9
1.549004E+3,	27.590255E-9
1.549008E+3,	27.738263E-9
1.549012E+3,	27.919127E-9
1.549016E+3,	28.243510E-9
1.549020E+3,	28.645730E-9
1.549024E+3,	29.021454E-9
1.549028E+3,	29.626988E-9
1.549032E+3,	30.501457E-9
1.549036E+3,	31.452905E-9
1.549040E+3,	32.301294E-9
1.549044E+3,	33.277401E-9
1.549048E+3,	34.378207E-9
1.549052E+3,	35.839593E-9
1.549056E+3,	37.256963E-9
1.549060E+3,	38.453091E-9
1.549064E+3,	39.698755E-9
1.549068E+3,	41.123334E-9
1.549072E+3,	42.264358E-9
1.549076E+3,	43.220772E-9
1.549080E+3,	44.132377E-9
1.549084E+3,	44.898418E-9
1.549088E+3,	45.615018E-9
1.549092E+3,	46.096713E-9
1.549096E+3,	46.399472E-9
1.549100E+3,	46.545397E-9
1.549104E+3,	46.634639E-9
1.549108E+3,	46.583179E-9
1.549112E+3,	46.434081E-9
1.549116E+3,	46.340017E-9
1.549120E+3,	46.223597E-9
1.549124E+3,	46.205831E-9
1.549128E+3,	46.362490E-9
1.549132E+3,	46.570562E-9
1.549136E+3,	46.997842E-9
1.549140E+3,	47.627627E-9
1.549144E+3,	48.675679E-9
1.549148E+3,	49.682914E-9
1.549152E+3,	50.643485E-9
1.549156E+3,	52.019348E-9
1.549160E+3,	53.563620E-9
1.549164E+3,	55.497123E-9
1.549168E+3,	57.293145E-9
1.549172E+3,	58.650745E-9
1.549176E+3,	60.194552E-9
1.549180E+3,	61.877661E-9
1.549184E+3,	63.344101E-9
1.549188E+3,	64.418428E-9
1.549192E+3,	65.374769E-9
1.549196E+3,	66.139934E-9
1.549200E+3,	66.702082E-9
1.549204E+3,	66.948728E-9
1.549208E+3,	66.924929E-9
1.549212E+3,	66.723145E-9
1.549216E+3,	66.381828E-9
1.549220E+3,	65.722184E-9
1.549224E+3,	65.054698E-9
1.549228E+3,	64.510173E-9
1.549232E+3,	63.976755E-9
1.549236E+3,	63.373738E-9
1.549240E+3,	62.979492E-9
1.549244E+3,	62.872439E-9
1.549248E+3,	62.969909E-9
1.549252E+3,	63.334665E-9
1.549256E+3,	64.002106E-9
1.549260E+3,	64.911400E-9
1.549264E+3,	65.871562E-9
1.549268E+3,	67.249913E-9
1.549272E+3,	69.177548E-9
1.549276E+3,	70.994816E-9
1.549280E+3,	72.460799E-9
1.549284E+3,	74.164423E-9
1.549288E+3,	75.779026E-9
1.549292E+3,	77.561208E-9
1.549296E+3,	79.055313E-9
1.549300E+3,	80.097149E-9
1.549304E+3,	80.937547E-9
1.549308E+3,	81.497498E-9
1.549312E+3,	81.772405E-9
1.549316E+3,	81.728812E-9
1.549320E+3,	81.360813E-9
1.549324E+3,	80.698307E-9
1.549328E+3,	79.635486E-9
1.549332E+3,	78.465304E-9
1.549336E+3,	77.445901E-9
1.549340E+3,	76.332292E-9
1.549344E+3,	75.240368E-9
1.549348E+3,	74.201858E-9
1.549352E+3,	73.419324E-9
1.549356E+3,	72.992139E-9
1.549360E+3,	72.827738E-9
1.549364E+3,	72.974755E-9
1.549368E+3,	73.585977E-9
1.549372E+3,	74.514365E-9
1.549376E+3,	75.672446E-9
1.549380E+3,	77.140179E-9
1.549384E+3,	79.308610E-9
1.549388E+3,	81.475671E-9
1.549392E+3,	83.272031E-9
1.549396E+3,	85.338744E-9
1.549400E+3,	87.455125E-9
1.549404E+3,	89.879677E-9
1.549408E+3,	91.861253E-9
1.549412E+3,	93.249206E-9
1.549416E+3,	94.379004E-9
1.549420E+3,	95.234868E-9
1.549424E+3,	95.557607E-9
1.549428E+3,	95.355367E-9
1.549432E+3,	94.662501E-9
1.549436E+3,	93.659905E-9
1.549440E+3,	92.122242E-9
1.549444E+3,	90.498817E-9
1.549448E+3,	89.037139E-9
1.549452E+3,	87.367744E-9
1.549456E+3,	85.790320E-9
1.549460E+3,	84.070568E-9
1.549464E+3,	82.920443E-9
1.549468E+3,	82.281855E-9
1.549472E+3,	81.928151E-9
1.549476E+3,	81.976609E-9
1.549480E+3,	82.441976E-9
1.549484E+3,	83.180839E-9
1.549488E+3,	84.467849E-9
1.549492E+3,	86.072854E-9
1.549496E+3,	88.371434E-9
1.549500E+3,	90.761252E-9
1.549504E+3,	92.813268E-9
1.549508E+3,	95.366392E-9
1.549512E+3,	97.862187E-9
1.549516E+3,	100.749542E-9
1.549520E+3,	103.046286E-9
1.549524E+3,	104.543429E-9
1.549528E+3,	105.762401E-9
1.549532E+3,	106.656366E-9
1.549536E+3,	106.979549E-9
1.549540E+3,	106.693437E-9
1.549544E+3,	105.933383E-9
1.549548E+3,	104.782124E-9
1.549552E+3,	103.069480E-9
1.549556E+3,	101.153946E-9
1.549560E+3,	99.485956E-9
1.549564E+3,	97.608185E-9
1.549568E+3,	95.496856E-9
1.549572E+3,	93.873921E-9
1.549576E+3,	92.839704E-9
1.549580E+3,	92.001414E-9
1.549584E+3,	91.569653E-9
1.549588E+3,	91.645356E-9
1.549592E+3,	92.320592E-9
1.549596E+3,	93.293318E-9
1.549600E+3,	94.679307E-9
1.549604E+3,	96.468820E-9
1.549608E+3,	98.885528E-9
1.549612E+3,	101.360699E-9
1.549616E+3,	103.519894E-9
1.549620E+3,	105.842335E-9
1.549624E+3,	108.339908E-9
1.549628E+3,	110.406140E-9
1.549632E+3,	111.717396E-9
1.549636E+3,	112.776794E-9
1.549640E+3,	113.517968E-9
1.549644E+3,	113.717940E-9
1.549648E+3,	113.298025E-9
1.549652E+3,	112.468420E-9
1.549656E+3,	111.212253E-9
1.549660E+3,	109.537454E-9
1.549664E+3,	107.040939E-9
1.549668E+3,	104.372653E-9
1.549672E+3,	102.098160E-9
1.549676E+3,	99.557665E-9
1.549680E+3,	96.741858E-9
1.549684E+3,	94.506759E-9
1.549688E+3,	92.861353E-9
1.549692E+3,	91.395784E-9
1.549696E+3,	90.377861E-9
1.549700E+3,	89.724617E-9
1.549704E+3,	89.651900E-9
1.549708E+3,	90.044611E-9
1.549712E+3,	90.844000E-9
1.549716E+3,	92.128888E-9
1.549720E+3,	93.572864E-9
1.549724E+3,	94.865954E-9
1.549728E+3,	96.433166E-9
1.549732E+3,	97.998561E-9
1.549736E+3,	99.749691E-9
1.549740E+3,	101.177100E-9
1.549744E+3,	102.166914E-9
1.549748E+3,	102.941086E-9
1.549752E+3,	103.394400E-9
1.549756E+3,	103.335842E-9
1.549760E+3,	102.778780E-9
1.549764E+3,	101.925233E-9
1.549768E+3,	100.520157E-9
1.549772E+3,	98.342967E-9
1.549776E+3,	96.073390E-9
1.549780E+3,	94.000800E-9
1.549784E+3,	91.666509E-9
1.549788E+3,	89.493727E-9
1.549792E+3,	87.071738E-9
1.549796E+3,	84.944161E-9
1.549800E+3,	83.424177E-9
1.549804E+3,	81.998898E-9
1.549808E+3,	81.086351E-9
1.549812E+3,	80.512470E-9
1.549816E+3,	80.414616E-9
1.549820E+3,	80.699798E-9
1.549824E+3,	81.361046E-9
1.549828E+3,	82.591407E-9
1.549832E+3,	84.045514E-9
1.549836E+3,	85.412428E-9
1.549840E+3,	87.106702E-9
1.549844E+3,	88.794532E-9
1.549848E+3,	90.867918E-9
1.549852E+3,	92.738989E-9
1.549856E+3,	94.103498E-9
1.549860E+3,	95.390925E-9
1.549864E+3,	96.366056E-9
1.549868E+3,	96.989937E-9
1.549872E+3,	97.075897E-9
1.549876E+3,	96.729424E-9
1.549880E+3,	96.113942E-9
1.549884E+3,	94.785980E-9
1.549888E+3,	93.081705E-9
1.549892E+3,	91.437675E-9
1.549896E+3,	89.413671E-9
1.549900E+3,	87.354994E-9
1.549904E+3,	84.838774E-9
1.549908E+3,	82.420104E-9
1.549912E+3,	80.548758E-9
1.549916E+3,	78.730546E-9
1.549920E+3,	77.109171E-9
1.549924E+3,	76.045560E-9
1.549928E+3,	75.631728E-9
1.549932E+3,	75.500384E-9
1.549936E+3,	75.848437E-9
1.549940E+3,	76.849132E-9
1.549944E+3,	78.175796E-9
1.549948E+3,	79.480266E-9
1.549952E+3,	81.063466E-9
1.549956E+3,	82.846503E-9
1.549960E+3,	84.995479E-9
1.549964E+3,	87.072188E-9
1.549968E+3,	88.610283E-9
1.549972E+3,	90.085122E-9
1.549976E+3,	91.516653E-9
1.549980E+3,	92.539044E-9
1.549984E+3,	93.071179E-9
1.549988E+3,	93.386930E-9
1.549992E+3,	93.363955E-9
1.549996E+3,	92.794291E-9
1.550000E+3,	91.784212E-9
1.550004E+3,	90.730340E-9
1.550008E+3,	89.221587E-9
1.550012E+3,	87.120698E-9
1.550016E+3,	85.105944E-9
1.550020E+3,	83.499396E-9
1.550024E+3,	81.839903E-9
1.550028E+3,	80.413143E-9
1.550032E+3,	79.107889E-9
1.550036E+3,	78.233820E-9
1.550040E+3,	77.963197E-9
1.550044E+3,	78.053950E-9
1.550048E+3,	78.727493E-9
1.550052E+3,	79.723086E-9
1.550056E+3,	80.924815E-9
1.550060E+3,	82.446096E-9
1.550064E+3,	84.113109E-9
1.550068E+3,	86.285616E-9
1.550072E+3,	88.301624E-9
1.550076E+3,	89.797913E-9
1.550080E+3,	91.312865E-9
1.550084E+3,	92.955421E-9
1.550088E+3,	94.174599E-9
1.550092E+3,	94.876669E-9
1.550096E+3,	95.292438E-9
1.550100E+3,	95.287217E-9
1.550104E+3,	94.714128E-9
1.550108E+3,	93.835051E-9
1.550112E+3,	92.775791E-9
1.550116E+3,	91.428140E-9
1.550120E+3,	89.497611E-9
1.550124E+3,	87.567945E-9
1.550128E+3,	85.777042E-9
1.550132E+3,	83.857842E-9
1.550136E+3,	82.128525E-9
1.550140E+3,	80.441872E-9
1.550144E+3,	79.124159E-9
1.550148E+3,	78.390527E-9
1.550152E+3,	77.961886E-9
1.550156E+3,	78.070200E-9
1.550160E+3,	78.738238E-9
1.550164E+3,	79.585325E-9
1.550168E+3,	80.862273E-9
1.550172E+3,	82.398141E-9
1.550176E+3,	84.516765E-9
1.550180E+3,	86.709190E-9
1.550184E+3,	88.577102E-9
1.550188E+3,	90.588473E-9
1.550192E+3,	92.707048E-9
1.550196E+3,	94.426694E-9
1.550200E+3,	95.470219E-9
1.550204E+3,	96.385744E-9
1.550208E+3,	96.881346E-9
1.550212E+3,	96.939879E-9
1.550216E+3,	96.641678E-9
1.550220E+3,	96.070694E-9
1.550224E+3,	95.130980E-9
1.550228E+3,	93.646331E-9
1.550232E+3,	92.022375E-9
1.550236E+3,	90.461640E-9
1.550240E+3,	88.798101E-9
1.550244E+3,	86.782888E-9
1.550248E+3,	85.022287E-9
1.550252E+3,	83.661530E-9
1.550256E+3,	82.387491E-9
1.550260E+3,	81.402945E-9
1.550264E+3,	80.706508E-9
1.550268E+3,	80.544341E-9
1.550272E+3,	80.741244E-9
1.550276E+3,	81.263438E-9
1.550280E+3,	82.341644E-9
1.550284E+3,	83.792203E-9
1.550288E+3,	85.126450E-9
1.550292E+3,	86.751251E-9
1.550296E+3,	88.267105E-9
1.550300E+3,	89.946987E-9
1.550304E+3,	91.413623E-9
1.550308E+3,	92.413290E-9
1.550312E+3,	93.293692E-9
1.550316E+3,	93.789826E-9
1.550320E+3,	93.790305E-9
1.550324E+3,	93.609351E-9
1.550328E+3,	93.079144E-9
1.550332E+3,	92.312633E-9
1.550336E+3,	90.996206E-9
1.550340E+3,	89.598538E-9
1.550344E+3,	88.261962E-9
1.550348E+3,	86.647596E-9
1.550352E+3,	84.760225E-9
1.550356E+3,	83.087770E-9
1.550360E+3,	81.857434E-9
1.550364E+3,	80.612726E-9
1.550368E+3,	79.483948E-9
1.550372E+3,	78.572363E-9
1.550376E+3,	78.100604E-9
1.550380E+3,	78.002937E-9
1.550384E+3,	78.267613E-9
1.550388E+3,	79.132525E-9
1.550392E+3,	80.345085E-9
1.550396E+3,	81.564261E-9
1.550400E+3,	83.156153E-9
1.550404E+3,	84.862331E-9
1.550408E+3,	86.885296E-9
1.550412E+3,	88.568149E-9
1.550416E+3,	89.849783E-9
1.550420E+3,	91.077949E-9
1.550424E+3,	92.161998E-9
1.550428E+3,	92.829420E-9
1.550432E+3,	93.068774E-9
1.550436E+3,	93.029547E-9
1.550440E+3,	92.447539E-9
1.550444E+3,	91.533547E-9
1.550448E+3,	90.528473E-9
1.550452E+3,	89.133735E-9
1.550456E+3,	87.625937E-9
1.550460E+3,	85.719058E-9
1.550464E+3,	83.910969E-9
1.550468E+3,	82.370441E-9
1.550472E+3,	80.719507E-9
1.550476E+3,	78.967185E-9
1.550480E+3,	77.671365E-9
1.550484E+3,	76.825572E-9
1.550488E+3,	76.146878E-9
1.550492E+3,	75.766651E-9
1.550496E+3,	75.875553E-9
1.550500E+3,	76.493382E-9
1.550504E+3,	77.346065E-9
1.550508E+3,	78.484842E-9
1.550512E+3,	80.193907E-9
1.550516E+3,	81.984348E-9
1.550520E+3,	83.618336E-9
1.550524E+3,	85.543312E-9
1.550528E+3,	87.398362E-9
1.550532E+3,	89.447666E-9
1.550536E+3,	91.030977E-9
1.550540E+3,	92.058835E-9
1.550544E+3,	92.956731E-9
1.550548E+3,	93.604747E-9
1.550552E+3,	93.668608E-9
1.550556E+3,	93.425035E-9
1.550560E+3,	92.886282E-9
1.550564E+3,	92.138078E-9
1.550568E+3,	90.944411E-9
1.550572E+3,	89.522216E-9
1.550576E+3,	88.304885E-9
1.550580E+3,	86.951356E-9
1.550584E+3,	85.298843E-9
1.550588E+3,	83.881717E-9
1.550592E+3,	82.873694E-9
1.550596E+3,	81.832122E-9
1.550600E+3,	80.929429E-9
1.550604E+3,	80.253541E-9
1.550608E+3,	79.908276E-9
1.550612E+3,	79.932921E-9
1.550616E+3,	80.200204E-9
1.550620E+3,	80.930557E-9
1.550624E+3,	81.956548E-9
1.550628E+3,	83.101919E-9
1.550632E+3,	84.518620E-9
1.550636E+3,	86.080417E-9
1.550640E+3,	88.030261E-9
1.550644E+3,	89.699547E-9
1.550648E+3,	90.917623E-9
1.550652E+3,	91.929892E-9
1.550656E+3,	92.902163E-9
1.550660E+3,	93.446437E-9
1.550664E+3,	93.647389E-9
1.550668E+3,	93.626916E-9
1.550672E+3,	93.258216E-9
1.550676E+3,	92.480609E-9
1.550680E+3,	91.567150E-9
1.550684E+3,	90.697066E-9
1.550688E+3,	89.544096E-9
1.550692E+3,	88.023690E-9
1.550696E+3,	86.606440E-9
1.550700E+3,	85.482424E-9
1.550704E+3,	84.255454E-9
1.550708E+3,	82.838571E-9
1.550712E+3,	81.678915E-9
1.550716E+3,	80.973245E-9
1.550720E+3,	80.379999E-9
1.550724E+3,	80.056250E-9
1.550728E+3,	80.006525E-9
1.550732E+3,	80.337728E-9
1.550736E+3,	80.882376E-9
1.550740E+3,	81.727317E-9
1.550744E+3,	82.988363E-9
1.550748E+3,	84.222383E-9
1.550752E+3,	85.200710E-9
1.550756E+3,	86.294872E-9
1.550760E+3,	87.354889E-9
1.550764E+3,	88.584798E-9
1.550768E+3,	89.408177E-9
1.550772E+3,	89.782810E-9
1.550776E+3,	90.083913E-9
1.550780E+3,	90.141778E-9
1.550784E+3,	89.827763E-9
1.550788E+3,	89.354656E-9
1.550792E+3,	88.605790E-9
1.550796E+3,	87.666808E-9
1.550800E+3,	86.376714E-9
1.550804E+3,	85.106428E-9
1.550808E+3,	84.111637E-9
1.550812E+3,	82.996071E-9
1.550816E+3,	81.660460E-9
1.550820E+3,	80.573128E-9
1.550824E+3,	79.816560E-9
1.550828E+3,	79.078181E-9
1.550832E+3,	78.514958E-9
1.550836E+3,	78.187723E-9
1.550840E+3,	78.075630E-9
1.550844E+3,	78.149177E-9
1.550848E+3,	78.352333E-9
1.550852E+3,	78.871880E-9
1.550856E+3,	79.484612E-9
1.550860E+3,	80.143387E-9
1.550864E+3,	80.999996E-9
1.550868E+3,	82.005867E-9
1.550872E+3,	83.135778E-9
1.550876E+3,	84.111193E-9
1.550880E+3,	84.824862E-9
1.550884E+3,	85.421035E-9
1.550888E+3,	85.787773E-9
1.550892E+3,	85.762873E-9
1.550896E+3,	85.560199E-9
1.550900E+3,	85.196495E-9
1.550904E+3,	84.460010E-9
1.550908E+3,	83.708191E-9
1.550912E+3,	83.007147E-9
1.550916E+3,	82.264740E-9
1.550920E+3,	81.473309E-9
1.550924E+3,	80.501815E-9
1.550928E+3,	79.654885E-9
1.550932E+3,	79.106748E-9
1.550936E+3,	78.494388E-9
1.550940E+3,	77.974985E-9
1.550944E+3,	77.624823E-9
1.550948E+3,	77.396929E-9
1.550952E+3,	77.228063E-9
1.550956E+3,	77.254782E-9
1.550960E+3,	77.385852E-9
1.550964E+3,	77.627904E-9
1.550968E+3,	77.935684E-9
1.550972E+3,	78.404659E-9
1.550976E+3,	79.044956E-9
1.550980E+3,	79.633929E-9
1.550984E+3,	80.130179E-9
1.550988E+3,	80.609033E-9
1.550992E+3,	81.042446E-9
1.550996E+3,	81.318035E-9
1.551000E+3,	81.397404E-9
1.551004E+3,	81.285428E-9
1.551008E+3,	81.086830E-9
1.551012E+3,	80.610642E-9
1.551016E+3,	80.023535E-9
1.551020E+3,	79.485207E-9
1.551024E+3,	78.895657E-9
1.551028E+3,	77.977046E-9
1.551032E+3,	77.199768E-9
1.551036E+3,	76.537286E-9
1.551040E+3,	75.996112E-9
1.551044E+3,	75.538456E-9
1.551048E+3,	75.194427E-9
1.551052E+3,	75.003783E-9
1.551056E+3,	75.008916E-9
1.551060E+3,	75.179253E-9
1.551064E+3,	75.582265E-9
1.551068E+3,	76.114159E-9
1.551072E+3,	76.744907E-9
1.551076E+3,	77.488264E-9
1.551080E+3,	78.542395E-9
1.551084E+3,	79.588591E-9
1.551088E+3,	80.446593E-9
1.551092E+3,	81.374077E-9
1.551096E+3,	82.291263E-9
1.551100E+3,	83.364138E-9
1.551104E+3,	84.245317E-9
1.551108E+3,	84.786032E-9
1.551112E+3,	85.287412E-9
1.551116E+3,	85.686833E-9
1.551120E+3,	85.791837E-9
1.551124E+3,	85.691591E-9
1.551128E+3,	85.445230E-9
1.551132E+3,	84.818990E-9
1.551136E+3,	84.124727E-9
1.551140E+3,	83.459562E-9
1.551144E+3,	82.665935E-9
1.551148E+3,	81.965672E-9
1.551152E+3,	81.178444E-9
1.551156E+3,	80.485054E-9
1.551160E+3,	79.956802E-9
1.551164E+3,	79.575658E-9
1.551168E+3,	79.156778E-9
1.551172E+3,	78.965805E-9
1.551176E+3,	78.790055E-9
1.551180E+3,	78.755694E-9
1.551184E+3,	78.781018E-9
1.551188E+3,	78.975964E-9
1.551192E+3,	79.180731E-9
1.551196E+3,	79.523252E-9
1.551200E+3,	79.880370E-9
1.551204E+3,	80.260856E-9
1.551208E+3,	80.568007E-9
1.551212E+3,	80.891053E-9
1.551216E+3,	81.164989E-9
1.551220E+3,	81.377712E-9
1.551224E+3,	81.458738E-9
1.551228E+3,	81.384786E-9
1.551232E+3,	81.166543E-9
1.551236E+3,	80.783486E-9
1.551240E+3,	80.302408E-9
1.551244E+3,	79.758327E-9
1.551248E+3,	79.126816E-9
1.551252E+3,	78.408209E-9
1.551256E+3,	77.666726E-9
1.551260E+3,	77.181886E-9
1.551264E+3,	76.701164E-9
1.551268E+3,	76.298025E-9
1.551272E+3,	75.951531E-9
1.551276E+3,	75.782135E-9
1.551280E+3,	75.770259E-9
1.551284E+3,	75.781261E-9
1.551288E+3,	76.026165E-9
1.551292E+3,	76.328932E-9
1.551296E+3,	76.729042E-9
1.551300E+3,	77.254789E-9
1.551304E+3,	78.069272E-9
1.551308E+3,	78.840828E-9
1.551312E+3,	79.532014E-9
1.551316E+3,	80.294035E-9
1.551320E+3,	81.057442E-9
1.551324E+3,	81.965238E-9
1.551328E+3,	82.642099E-9
1.551332E+3,	83.066169E-9
1.551336E+3,	83.472968E-9
1.551340E+3,	83.715307E-9
1.551344E+3,	83.625115E-9
1.551348E+3,	83.491065E-9
1.551352E+3,	83.109995E-9
1.551356E+3,	82.451143E-9
1.551360E+3,	81.601335E-9
1.551364E+3,	80.844677E-9
1.551368E+3,	79.869115E-9
1.551372E+3,	78.758541E-9
1.551376E+3,	77.372397E-9
1.551380E+3,	76.193737E-9
1.551384E+3,	75.380167E-9
1.551388E+3,	74.601088E-9
1.551392E+3,	73.702591E-9
1.551396E+3,	73.094630E-9
1.551400E+3,	72.640848E-9
1.551404E+3,	72.273447E-9
1.551408E+3,	72.099787E-9
1.551412E+3,	72.088051E-9
1.551416E+3,	72.182520E-9
1.551420E+3,	72.376927E-9
1.551424E+3,	72.693590E-9
1.551428E+3,	73.203442E-9
1.551432E+3,	73.790823E-9
1.551436E+3,	74.369531E-9
1.551440E+3,	74.952672E-9
1.551444E+3,	75.672162E-9
1.551448E+3,	76.259079E-9
1.551452E+3,	76.821849E-9
1.551456E+3,	77.386571E-9
1.551460E+3,	77.862172E-9
1.551464E+3,	78.082604E-9
1.551468E+3,	78.190471E-9
1.551472E+3,	78.099058E-9
1.551476E+3,	77.764986E-9
1.551480E+3,	77.269700E-9
1.551484E+3,	76.754495E-9
1.551488E+3,	76.087248E-9
1.551492E+3,	75.402177E-9
1.551496E+3,	74.508123E-9
1.551500E+3,	73.656272E-9
1.551504E+3,	72.948051E-9
1.551508E+3,	72.210786E-9
1.551512E+3,	71.420542E-9
1.551516E+3,	70.843417E-9
1.551520E+3,	70.475667E-9
1.551524E+3,	70.123933E-9
1.551528E+3,	69.801045E-9
1.551532E+3,	69.652666E-9
1.551536E+3,	69.625508E-9
1.551540E+3,	69.684090E-9
1.551544E+3,	69.899167E-9
1.551548E+3,	70.160947E-9
1.551552E+3,	70.588631E-9
1.551556E+3,	71.051597E-9
1.551560E+3,	71.641832E-9
1.551564E+3,	72.336117E-9
1.551568E+3,	72.936104E-9
1.551572E+3,	73.325442E-9
1.551576E+3,	73.751731E-9
1.551580E+3,	74.142657E-9
1.551584E+3,	74.423109E-9
1.551588E+3,	74.534874E-9
1.551592E+3,	74.554083E-9
1.551596E+3,	74.392089E-9
1.551600E+3,	74.152069E-9
1.551604E+3,	73.755590E-9
1.551608E+3,	73.386347E-9
1.551612E+3,	72.875942E-9
1.551616E+3,	72.320332E-9
1.551620E+3,	71.807241E-9
1.551624E+3,	71.366318E-9
1.551628E+3,	70.982554E-9
1.551632E+3,	70.649683E-9
1.551636E+3,	70.386808E-9
1.551640E+3,	70.298562E-9
1.551644E+3,	70.256108E-9
1.551648E+3,	70.323680E-9
1.551652E+3,	70.539232E-9
1.551656E+3,	70.851774E-9
1.551660E+3,	71.268052E-9
1.551664E+3,	71.784024E-9
1.551668E+3,	72.484110E-9
1.551672E+3,	73.167480E-9
1.551676E+3,	73.768033E-9
1.551680E+3,	74.429851E-9
1.551684E+3,	75.169679E-9
1.551688E+3,	75.749642E-9
1.551692E+3,	76.199814E-9
1.551696E+3,	76.538852E-9
1.551700E+3,	76.775075E-9
1.551704E+3,	76.805928E-9
1.551708E+3,	76.662576E-9
1.551712E+3,	76.268742E-9
1.551716E+3,	75.783857E-9
1.551720E+3,	74.955787E-9
1.551724E+3,	74.067736E-9
1.551728E+3,	73.250546E-9
1.551732E+3,	72.402680E-9
1.551736E+3,	71.430841E-9
1.551740E+3,	70.501857E-9
1.551744E+3,	69.742933E-9
1.551748E+3,	69.017084E-9
1.551752E+3,	68.249155E-9
1.551756E+3,	67.729510E-9
1.551760E+3,	67.444731E-9
1.551764E+3,	67.232904E-9
1.551768E+3,	67.159253E-9
1.551772E+3,	67.255281E-9
1.551776E+3,	67.592008E-9
1.551780E+3,	67.959696E-9
1.551784E+3,	68.466459E-9
1.551788E+3,	69.164771E-9
1.551792E+3,	69.915822E-9
1.551796E+3,	70.571299E-9
1.551800E+3,	71.300101E-9
1.551804E+3,	72.093738E-9
1.551808E+3,	72.849412E-9
1.551812E+3,	73.299018E-9
1.551816E+3,	73.588423E-9
1.551820E+3,	73.730043E-9
1.551824E+3,	73.618680E-9
1.551828E+3,	73.319722E-9
1.551832E+3,	72.979670E-9
1.551836E+3,	72.418506E-9
1.551840E+3,	71.548133E-9
1.551844E+3,	70.666408E-9
1.551848E+3,	69.922955E-9
1.551852E+3,	69.142020E-9
1.551856E+3,	68.177938E-9
1.551860E+3,	67.306063E-9
1.551864E+3,	66.630161E-9
1.551868E+3,	65.906770E-9
1.551872E+3,	65.367803E-9
1.551876E+3,	64.838931E-9
1.551880E+3,	64.541491E-9
1.551884E+3,	64.409518E-9
1.551888E+3,	64.354860E-9
1.551892E+3,	64.574328E-9
1.551896E+3,	64.966752E-9
1.551900E+3,	65.416376E-9
1.551904E+3,	66.028068E-9
1.551908E+3,	66.853651E-9
1.551912E+3,	67.683069E-9
1.551916E+3,	68.398862E-9
1.551920E+3,	69.070451E-9
1.551924E+3,	69.661968E-9
1.551928E+3,	70.167848E-9
1.551932E+3,	70.489278E-9
1.551936E+3,	70.590613E-9
1.551940E+3,	70.442312E-9
1.551944E+3,	70.128213E-9
1.551948E+3,	69.609799E-9
1.551952E+3,	69.126603E-9
1.551956E+3,	68.420508E-9
1.551960E+3,	67.500123E-9
1.551964E+3,	66.548338E-9
1.551968E+3,	65.719742E-9
1.551972E+3,	64.812452E-9
1.551976E+3,	63.850471E-9
1.551980E+3,	63.009827E-9
1.551984E+3,	62.381522E-9
1.551988E+3,	61.780829E-9
1.551992E+3,	61.304007E-9
1.551996E+3,	60.955261E-9
1.552000E+3,	60.833598E-9
1.552004E+3,	60.912818E-9
1.552008E+3,	61.196939E-9
1.552012E+3,	61.785777E-9
1.552016E+3,	62.452975E-9
1.552020E+3,	63.039468E-9
1.552024E+3,	63.832223E-9
1.552028E+3,	64.833229E-9
1.552032E+3,	65.650637E-9
1.552036E+3,	66.277790E-9
1.552040E+3,	66.860128E-9
1.552044E+3,	67.368085E-9
1.552048E+3,	67.642137E-9
1.552052E+3,	67.661771E-9
1.552056E+3,	67.505320E-9
1.552060E+3,	67.052565E-9
1.552064E+3,	66.437008E-9
1.552068E+3,	65.747131E-9
1.552072E+3,	64.859812E-9
1.552076E+3,	63.714970E-9
1.552080E+3,	62.609693E-9
1.552084E+3,	61.734412E-9
1.552088E+3,	60.771186E-9
1.552092E+3,	59.960072E-9
1.552096E+3,	58.982397E-9
1.552100E+3,	58.204357E-9
1.552104E+3,	57.633738E-9
1.552108E+3,	57.173433E-9
1.552112E+3,	56.779758E-9
1.552116E+3,	56.685123E-9
1.552120E+3,	56.745266E-9
1.552124E+3,	56.995384E-9
1.552128E+3,	57.447223E-9
1.552132E+3,	58.070543E-9
1.552136E+3,	58.619532E-9
1.552140E+3,	59.365944E-9
1.552144E+3,	60.250811E-9
1.552148E+3,	61.054551E-9
1.552152E+3,	61.693350E-9
1.552156E+3,	62.264497E-9
1.552160E+3,	62.838407E-9
1.552164E+3,	63.194157E-9
1.552168E+3,	63.242999E-9
1.552172E+3,	63.094728E-9
1.552176E+3,	62.770903E-9
1.552180E+3,	62.244075E-9
1.552184E+3,	61.716044E-9
1.552188E+3,	61.055534E-9
1.552192E+3,	60.298394E-9
1.552196E+3,	59.342146E-9
1.552200E+3,	58.503212E-9
1.552204E+3,	57.865013E-9
1.552208E+3,	57.214710E-9
1.552212E+3,	56.637404E-9
1.552216E+3,	56.214294E-9
1.552220E+3,	56.076361E-9
1.552224E+3,	56.035520E-9
1.552228E+3,	56.193056E-9
1.552232E+3,	56.561075E-9
1.552236E+3,	57.027907E-9
1.552240E+3,	57.723250E-9
1.552244E+3,	58.761400E-9
1.552248E+3,	59.891559E-9
1.552252E+3,	60.812681E-9
1.552256E+3,	61.995591E-9
1.552260E+3,	63.518135E-9
1.552264E+3,	64.867515E-9
1.552268E+3,	65.776879E-9
1.552272E+3,	66.691528E-9
1.552276E+3,	67.431419E-9
1.552280E+3,	67.891935E-9
1.552284E+3,	67.996884E-9
1.552288E+3,	67.934204E-9
1.552292E+3,	67.627300E-9
1.552296E+3,	66.958663E-9
1.552300E+3,	66.127052E-9
1.552304E+3,	65.303014E-9
1.552308E+3,	64.316147E-9
1.552312E+3,	63.057345E-9
1.552316E+3,	61.877229E-9
1.552320E+3,	60.970976E-9
1.552324E+3,	60.064245E-9
1.552328E+3,	59.210736E-9
1.552332E+3,	58.530479E-9
1.552336E+3,	58.102022E-9
1.552340E+3,	57.819910E-9
1.552344E+3,	57.683872E-9
1.552348E+3,	57.732334E-9
1.552352E+3,	58.016118E-9
1.552356E+3,	58.441465E-9
1.552360E+3,	59.082467E-9
1.552364E+3,	59.870290E-9
1.552368E+3,	60.584520E-9
1.552372E+3,	61.390789E-9
1.552376E+3,	62.298870E-9
1.552380E+3,	63.092029E-9
1.552384E+3,	63.620604E-9
1.552388E+3,	64.064533E-9
1.552392E+3,	64.330797E-9
1.552396E+3,	64.290754E-9
1.552400E+3,	63.989874E-9
1.552404E+3,	63.505427E-9
1.552408E+3,	62.740006E-9
1.552412E+3,	61.615853E-9
1.552416E+3,	60.390267E-9
1.552420E+3,	59.353056E-9
1.552424E+3,	58.031332E-9
1.552428E+3,	56.494350E-9
1.552432E+3,	55.230328E-9
1.552436E+3,	54.311703E-9
1.552440E+3,	53.486139E-9
1.552444E+3,	52.665823E-9
1.552448E+3,	52.085383E-9
1.552452E+3,	51.806560E-9
1.552456E+3,	51.692660E-9
1.552460E+3,	51.770802E-9
1.552464E+3,	52.100102E-9
1.552468E+3,	52.432774E-9
1.552472E+3,	53.026971E-9
1.552476E+3,	53.874684E-9
1.552480E+3,	54.746690E-9
1.552484E+3,	55.399397E-9
1.552488E+3,	56.235286E-9
1.552492E+3,	56.964828E-9
1.552496E+3,	57.699735E-9
1.552500E+3,	58.267288E-9
1.552504E+3,	58.575779E-9
1.552508E+3,	58.657214E-9
1.552512E+3,	58.444513E-9
1.552516E+3,	58.001976E-9
1.552520E+3,	57.434978E-9
1.552524E+3,	56.637512E-9
1.552528E+3,	55.417504E-9
1.552532E+3,	54.153855E-9
1.552536E+3,	53.150293E-9
1.552540E+3,	52.093742E-9
1.552544E+3,	50.901966E-9
1.552548E+3,	49.932328E-9
1.552552E+3,	49.255422E-9
1.552556E+3,	48.689530E-9
1.552560E+3,	48.290103E-9
1.552564E+3,	48.189378E-9
1.552568E+3,	48.216335E-9
1.552572E+3,	48.501072E-9
1.552576E+3,	49.069560E-9
1.552580E+3,	49.805771E-9
1.552584E+3,	50.538099E-9
1.552588E+3,	51.439599E-9
1.552592E+3,	52.411838E-9
1.552596E+3,	53.559183E-9
1.552600E+3,	54.552524E-9
1.552604E+3,	55.446999E-9
1.552608E+3,	56.319427E-9
1.552612E+3,	57.173074E-9
1.552616E+3,	57.679932E-9
1.552620E+3,	57.888469E-9
1.552624E+3,	57.938357E-9
1.552628E+3,	57.617508E-9
1.552632E+3,	56.973790E-9
1.552636E+3,	56.225220E-9
1.552640E+3,	55.229051E-9
1.552644E+3,	53.872251E-9
1.552648E+3,	52.566249E-9
1.552652E+3,	51.448028E-9
1.552656E+3,	50.242790E-9
1.552660E+3,	48.885517E-9
1.552664E+3,	47.858813E-9
1.552668E+3,	47.171012E-9
1.552672E+3,	46.643330E-9
1.552676E+3,	46.352197E-9
1.552680E+3,	46.348664E-9
1.552684E+3,	46.616372E-9
1.552688E+3,	47.092795E-9
1.552692E+3,	47.747426E-9
1.552696E+3,	48.814391E-9
1.552700E+3,	49.786412E-9
1.552704E+3,	50.696372E-9
1.552708E+3,	51.702727E-9
1.552712E+3,	52.936226E-9
1.552716E+3,	54.018523E-9
1.552720E+3,	54.770475E-9
1.552724E+3,	55.540345E-9
1.552728E+3,	56.300163E-9
1.552732E+3,	56.745232E-9
1.552736E+3,	56.915073E-9
1.552740E+3,	56.921131E-9
1.552744E+3,	56.578133E-9
1.552748E+3,	55.946040E-9
1.552752E+3,	55.256346E-9
1.552756E+3,	54.338412E-9
1.552760E+3,	53.140857E-9
1.552764E+3,	51.937117E-9
1.552768E+3,	50.922054E-9
1.552772E+3,	49.828668E-9
1.552776E+3,	48.801804E-9
1.552780E+3,	48.059027E-9
1.552784E+3,	47.616269E-9
1.552788E+3,	47.357632E-9
1.552792E+3,	47.313151E-9
1.552796E+3,	47.568785E-9
1.552800E+3,	48.000727E-9
1.552804E+3,	48.532944E-9
1.552808E+3,	49.172308E-9
1.552812E+3,	50.031179E-9
1.552816E+3,	50.913695E-9
1.552820E+3,	51.607535E-9
1.552824E+3,	52.414137E-9
1.552828E+3,	53.273137E-9
1.552832E+3,	53.935332E-9
1.552836E+3,	54.290406E-9
1.552840E+3,	54.551756E-9
1.552844E+3,	54.585252E-9
1.552848E+3,	54.362532E-9
1.552852E+3,	53.899481E-9
1.552856E+3,	53.226666E-9
1.552860E+3,	52.106166E-9
1.552864E+3,	50.900140E-9
1.552868E+3,	49.746962E-9
1.552872E+3,	48.323545E-9
1.552876E+3,	46.596976E-9
1.552880E+3,	44.964788E-9
1.552884E+3,	43.683603E-9
1.552888E+3,	42.443618E-9
1.552892E+3,	41.404510E-9
1.552896E+3,	40.357570E-9
1.552900E+3,	39.644697E-9
1.552904E+3,	39.266395E-9
1.552908E+3,	39.104727E-9
1.552912E+3,	39.109620E-9
1.552916E+3,	39.270466E-9
1.552920E+3,	39.625372E-9
1.552924E+3,	40.110999E-9
1.552928E+3,	40.778026E-9
1.552932E+3,	41.455499E-9
1.552936E+3,	41.942116E-9
1.552940E+3,	42.417628E-9
1.552944E+3,	42.898846E-9
1.552948E+3,	43.217752E-9
1.552952E+3,	43.407136E-9
1.552956E+3,	43.373048E-9
1.552960E+3,	43.091097E-9
1.552964E+3,	42.738582E-9
1.552968E+3,	42.288992E-9
1.552972E+3,	41.604392E-9
1.552976E+3,	40.529262E-9
1.552980E+3,	39.330940E-9
1.552984E+3,	38.166215E-9
1.552988E+3,	36.925473E-9
1.552992E+3,	35.572834E-9
1.552996E+3,	33.979086E-9
1.553000E+3,	32.624604E-9
1.553004E+3,	31.648758E-9
1.553008E+3,	30.652374E-9
1.553012E+3,	29.724813E-9
1.553016E+3,	29.124244E-9
1.553020E+3,	28.853520E-9
1.553024E+3,	28.723410E-9
1.553028E+3,	28.808609E-9
1.553032E+3,	29.054063E-9
1.553036E+3,	29.437706E-9
1.553040E+3,	29.997819E-9
1.553044E+3,	30.659648E-9
1.553048E+3,	31.271959E-9
1.553052E+3,	31.733569E-9
1.553056E+3,	32.304433E-9
1.553060E+3,	32.768192E-9
1.553064E+3,	32.985181E-9
1.553068E+3,	33.146655E-9
1.553072E+3,	33.107294E-9
1.553076E+3,	32.944083E-9
1.553080E+3,	32.596936E-9
1.553084E+3,	32.062823E-9
1.553088E+3,	31.164377E-9
1.553092E+3,	30.194654E-9
1.553096E+3,	29.315198E-9
1.553100E+3,	28.326517E-9
1.553104E+3,	26.987956E-9
1.553108E+3,	25.804053E-9
1.553112E+3,	24.882690E-9
1.553116E+3,	23.894251E-9
1.553120E+3,	22.931430E-9
1.553124E+3,	22.211021E-9
1.553128E+3,	21.795696E-9
1.553132E+3,	21.496599E-9
1.553136E+3,	21.390613E-9
1.553140E+3,	21.503897E-9
1.553144E+3,	21.802333E-9
1.553148E+3,	22.224121E-9
1.553152E+3,	22.832951E-9
1.553156E+3,	23.489665E-9
1.553160E+3,	24.030653E-9
1.553164E+3,	24.642124E-9
1.553168E+3,	25.330919E-9
1.553172E+3,	25.835519E-9
1.553176E+3,	26.141871E-9
1.553180E+3,	26.385900E-9
1.553184E+3,	26.443532E-9
1.553188E+3,	26.327342E-9
1.553192E+3,	26.037969E-9
1.553196E+3,	25.641915E-9
1.553200E+3,	24.946914E-9
1.553204E+3,	24.245992E-9
1.553208E+3,	23.618167E-9
1.553212E+3,	22.843029E-9
1.553216E+3,	21.749718E-9
1.553220E+3,	20.735283E-9
1.553224E+3,	19.917655E-9
1.553228E+3,	19.070460E-9
1.553232E+3,	18.193886E-9
1.553236E+3,	17.509859E-9
1.553240E+3,	17.082816E-9
1.553244E+3,	16.725085E-9
1.553248E+3,	16.512668E-9
1.553252E+3,	16.519101E-9
1.553256E+3,	16.675998E-9
1.553260E+3,	16.912384E-9
1.553264E+3,	17.336145E-9
1.553268E+3,	17.787634E-9
1.553272E+3,	18.160020E-9
1.553276E+3,	18.533205E-9
1.553280E+3,	18.898571E-9
1.553284E+3,	19.148657E-9
1.553288E+3,	19.277033E-9
1.553292E+3,	19.278182E-9
1.553296E+3,	19.176459E-9
1.553300E+3,	18.941725E-9
1.553304E+3,	18.622397E-9
1.553308E+3,	18.212838E-9
1.553312E+3,	17.553853E-9
1.553316E+3,	16.848343E-9
1.553320E+3,	16.217211E-9
1.553324E+3,	15.455129E-9
1.553328E+3,	14.511633E-9
1.553332E+3,	13.679264E-9
1.553336E+3,	13.093257E-9
1.553340E+3,	12.478085E-9
1.553344E+3,	11.833173E-9
1.553348E+3,	11.319964E-9
1.553352E+3,	11.014503E-9
1.553356E+3,	10.773360E-9
1.553360E+3,	10.666605E-9
1.553364E+3,	10.665152E-9
1.553368E+3,	10.704127E-9
1.553372E+3,	10.843211E-9
1.553376E+3,	11.113392E-9
1.553380E+3,	11.367183E-9
1.553384E+3,	11.584529E-9
1.553388E+3,	11.782883E-9
1.553392E+3,	11.985434E-9
1.553396E+3,	12.104076E-9
1.553400E+3,	12.139982E-9
1.553404E+3,	12.117619E-9
1.553408E+3,	11.941806E-9
1.553412E+3,	11.676063E-9
1.553416E+3,	11.394758E-9
1.553420E+3,	11.019168E-9
1.553424E+3,	10.463935E-9
1.553428E+3,	9.908228E-9
1.553432E+3,	9.418341E-9
1.553436E+3,	8.884600E-9
1.553440E+3,	8.273680E-9
1.553444E+3,	7.776572E-9
1.553448E+3,	7.370673E-9
1.553452E+3,	6.961835E-9
1.553456E+3,	6.547864E-9
1.553460E+3,	6.200510E-9
1.553464E+3,	6.037093E-9
1.553468E+3,	5.880390E-9
1.553472E+3,	5.801729E-9
1.553476E+3,	5.791468E-9
1.553480E+3,	5.833602E-9
1.553484E+3,	5.932081E-9
1.553488E+3,	6.080460E-9
1.553492E+3,	6.213326E-9
1.553496E+3,	6.356202E-9
1.553500E+3,	6.483742E-9
1.553504E+3,	6.619779E-9
1.553508E+3,	6.682283E-9
1.553512E+3,	6.704011E-9
1.553516E+3,	6.670581E-9
1.553520E+3,	6.539780E-9
1.553524E+3,	6.416382E-9
1.553528E+3,	6.221724E-9
1.553532E+3,	5.895927E-9
1.553536E+3,	5.578544E-9
1.553540E+3,	5.277543E-9
1.553544E+3,	4.952737E-9
1.553548E+3,	4.562783E-9
1.553552E+3,	4.227761E-9
1.553556E+3,	3.988995E-9
1.553560E+3,	3.709933E-9
1.553564E+3,	3.412345E-9
1.553568E+3,	3.181892E-9
1.553572E+3,	3.057804E-9
1.553576E+3,	2.953651E-9
1.553580E+3,	2.861866E-9
1.553584E+3,	2.860408E-9
1.553588E+3,	2.871969E-9
1.553592E+3,	2.910653E-9
1.553596E+3,	2.981703E-9
1.553600E+3,	3.079750E-9
1.553604E+3,	3.178450E-9
1.553608E+3,	3.252471E-9
1.553612E+3,	3.372802E-9
1.553616E+3,	3.456413E-9
1.553620E+3,	3.496094E-9
1.553624E+3,	3.510476E-9
1.553628E+3,	3.491826E-9
1.553632E+3,	3.438142E-9
1.553636E+3,	3.370396E-9
1.553640E+3,	3.282512E-9
1.553644E+3,	3.101420E-9
1.553648E+3,	2.936439E-9
1.553652E+3,	2.792538E-9
1.553656E+3,	2.645112E-9
1.553660E+3,	2.430947E-9
1.553664E+3,	2.271296E-9
1.553668E+3,	2.106561E-9
1.553672E+3,	1.959931E-9
1.553676E+3,	1.813531E-9
1.553680E+3,	1.723502E-9
1.553684E+3,	1.674557E-9
1.553688E+3,	1.589270E-9
1.553692E+3,	1.567470E-9
1.553696E+3,	1.550774E-9
1.553700E+3,	1.551218E-9
1.553704E+3,	1.580155E-9
1.553708E+3,	1.644245E-9
1.553712E+3,	1.692716E-9
1.553716E+3,	1.732432E-9
1.553720E+3,	1.788052E-9
1.553724E+3,	1.849491E-9
1.553728E+3,	1.879195E-9
1.553732E+3,	1.910827E-9
1.553736E+3,	1.913475E-9
1.553740E+3,	1.888719E-9
1.553744E+3,	1.855429E-9
1.553748E+3,	1.827051E-9
1.553752E+3,	1.752923E-9
1.553756E+3,	1.661612E-9
1.553760E+3,	1.578943E-9
1.553764E+3,	1.487317E-9
1.553768E+3,	1.378226E-9
1.553772E+3,	1.286848E-9
1.553776E+3,	1.216049E-9
1.553780E+3,	1.092565E-9
1.553784E+3,	1.044733E-9
1.553788E+3,	972.853912E-12
1.553792E+3,	924.194986E-12
1.553796E+3,	897.162555E-12
1.553800E+3,	862.675457E-12
1.553804E+3,	835.363255E-12
1.553808E+3,	852.606678E-12
1.553812E+3,	857.952343E-12
1.553816E+3,	878.827033E-12
1.553820E+3,	902.134765E-12
1.553824E+3,	946.237121E-12
1.553828E+3,	948.971502E-12
1.553832E+3,	966.549325E-12
1.553836E+3,	1.004431E-9
1.553840E+3,	1.021341E-9
1.553844E+3,	1.047307E-9
1.553848E+3,	1.003724E-9
1.553852E+3,	1.013034E-9
1.553856E+3,	997.803471E-12
1.553860E+3,	957.010286E-12
1.553864E+3,	901.350377E-12
1.553868E+3,	878.391177E-12
1.553872E+3,	819.028895E-12
1.553876E+3,	755.956761E-12
1.553880E+3,	695.893111E-12
1.553884E+3,	637.781417E-12
1.553888E+3,	568.697494E-12
1.553892E+3,	573.528602E-12
1.553896E+3,	525.021254E-12
1.553900E+3,	488.479910E-12
1.553904E+3,	467.210590E-12
1.553908E+3,	465.976749E-12
1.553912E+3,	434.221895E-12
1.553916E+3,	438.410649E-12
1.553920E+3,	466.588052E-12
1.553924E+3,	462.086120E-12
1.553928E+3,	466.662205E-12
1.553932E+3,	471.080234E-12
1.553936E+3,	521.050730E-12
1.553940E+3,	502.363129E-12
1.553944E+3,	505.068132E-12
1.553948E+3,	516.590544E-12
1.553952E+3,	521.475038E-12
1.553956E+3,	525.068146E-12
1.553960E+3,	514.876152E-12
1.553964E+3,	501.993713E-12
1.553968E+3,	463.962764E-12
1.553972E+3,	458.060097E-12
1.553976E+3,	440.233299E-12
1.553980E+3,	419.716182E-12
1.553984E+3,	387.373280E-12
1.553988E+3,	343.186666E-12
1.553992E+3,	325.227182E-12
1.553996E+3,	301.961958E-12
1.554000E+3,	298.604868E-12
1.554004E+3,	259.982626E-12
1.554008E+3,	245.212601E-12
1.554012E+3,	229.188752E-12
1.554016E+3,	236.762255E-12
1.554020E+3,	222.638415E-12
1.554024E+3,	220.193431E-12
1.554028E+3,	231.679858E-12
1.554032E+3,	245.103073E-12
1.554036E+3,	233.611278E-12
1.554040E+3,	249.018428E-12
1.554044E+3,	241.365813E-12
1.554048E+3,	261.752380E-12
1.554052E+3,	248.422477E-12
1.554056E+3,	262.895298E-12
1.554060E+3,	254.886935E-12
1.554064E+3,	261.882174E-12
1.554068E+3,	276.658127E-12
1.554072E+3,	259.178697E-12
1.554076E+3,	243.388532E-12
1.554080E+3,	228.121696E-12
1.554084E+3,	214.581687E-12
1.554088E+3,	220.558247E-12
1.554092E+3,	182.800604E-12
1.554096E+3,	197.632672E-12
1.554100E+3,	164.806507E-12
1.554104E+3,	157.866412E-12
1.554108E+3,	137.547170E-12
1.554112E+3,	137.699213E-12
1.554116E+3,	123.513225E-12
1.554120E+3,	126.429660E-12
1.554124E+3,	127.473850E-12
1.554128E+3,	122.317502E-12
1.554132E+3,	117.903079E-12
1.554136E+3,	115.264894E-12
1.554140E+3,	129.728925E-12
1.554144E+3,	120.221573E-12
1.554148E+3,	113.859610E-12
1.554152E+3,	108.849425E-12
1.554156E+3,	142.755514E-12
1.554160E+3,	114.007992E-12
1.554164E+3,	101.357553E-12
1.554168E+3,	128.165247E-12
1.554172E+3,	138.245000E-12
1.554176E+3,	135.128216E-12
1.554180E+3,	112.227036E-12
1.554184E+3,	108.035018E-12
1.554188E+3,	122.401338E-12
1.554192E+3,	110.713379E-12
1.554196E+3,	119.285620E-12
1.554200E+3,	112.372830E-12
1.554204E+3,	105.802803E-12
1.554208E+3,	106.329079E-12
1.554212E+3,	88.567125E-12
1.554216E+3,	74.713130E-12
1.554220E+3,	91.087452E-12
1.554224E+3,	60.691773E-12
1.554228E+3,	73.155043E-12
1.554232E+3,	84.243786E-12
1.554236E+3,	95.466804E-12
1.554240E+3,	86.412535E-12
1.554244E+3,	63.880749E-12
1.554248E+3,	63.843502E-12
1.554252E+3,	77.688935E-12
1.554256E+3,	77.503322E-12
1.554260E+3,	70.890195E-12
1.554264E+3,	86.726108E-12
1.554268E+3,	67.740308E-12
1.554272E+3,	60.260285E-12
1.554276E+3,	61.640345E-12
1.554280E+3,	73.566795E-12
1.554284E+3,	82.310965E-12
1.554288E+3,	78.876421E-12
1.554292E+3,	67.053701E-12
1.554296E+3,	59.144617E-12
1.554300E+3,	78.449426E-12
1.554304E+3,	51.919846E-12
1.554308E+3,	58.168657E-12
1.554312E+3,	70.189895E-12
1.554316E+3,	55.543185E-12
1.554320E+3,	60.362303E-12
1.554324E+3,	52.421367E-12
1.554328E+3,	60.926828E-12
1.554332E+3,	46.788087E-12
1.554336E+3,	42.549194E-12
1.554340E+3,	41.250681E-12
1.554344E+3,	39.397460E-12
1.554348E+3,	30.465572E-12
1.554352E+3,	41.115677E-12
1.554356E+3,	15.369254E-12
1.554360E+3,	41.356765E-12
1.554364E+3,	18.492565E-12
1.554368E+3,	22.796196E-12
1.554372E+3,	34.419987E-12
1.554376E+3,	53.968295E-12
1.554380E+3,	39.462253E-12
1.554384E+3,	36.719902E-12
1.554388E+3,	35.780755E-12
1.554392E+3,	26.280987E-12
1.554396E+3,	45.416280E-12
1.554400E+3,	18.408308E-12
1.554404E+3,	48.742719E-12
1.554408E+3,	44.134410E-12
1.554412E+3,	6.402571E-12
1.554416E+3,	38.813465E-12
1.554420E+3,	5.469762E-12
1.554424E+3,	5.470700E-12
1.554428E+3,	8.761972E-12
1.554432E+3,	34.334838E-12
1.554436E+3,	29.371689E-12
1.554440E+3,	25.971143E-12
1.554444E+3,	27.197572E-12
1.554448E+3,	20.983452E-12
1.554452E+3,	31.501804E-12
1.554456E+3,	14.097093E-12
1.554460E+3,	38.458404E-12
1.554464E+3,	23.934746E-12
1.554468E+3,	5.212826E-12
1.554472E+3,	3.450265E-12
1.554476E+3,	15.512912E-12
1.554480E+3,	33.281626E-12
1.554484E+3,	13.102534E-12
1.554488E+3,	0.000000E+0
1.554492E+3,	15.680190E-12
1.554496E+3,	4.444096E-12
1.554500E+3,	36.486328E-12
