YOKOGAWA AQ6370D - S/N: 91S206859
#Date: 20/10/2023 Time: 12:55:33,	
A_WL(nm),	A_I(mW)
1.547500E+3,	20.933499E-12
1.547504E+3,	6.520142E-12
1.547508E+3,	0.000000E+0
1.547512E+3,	27.152092E-12
1.547516E+3,	17.951644E-12
1.547520E+3,	0.000000E+0
1.547524E+3,	4.888442E-12
1.547528E+3,	28.548107E-12
1.547532E+3,	11.088903E-12
1.547536E+3,	13.203716E-12
1.547540E+3,	27.162589E-12
1.547544E+3,	10.003279E-12
1.547548E+3,	9.294034E-12
1.547552E+3,	17.579449E-12
1.547556E+3,	21.513659E-12
1.547560E+3,	0.000000E+0
1.547564E+3,	11.052644E-12
1.547568E+3,	11.324597E-12
1.547572E+3,	16.781726E-12
1.547576E+3,	30.659716E-12
1.547580E+3,	4.811151E-12
1.547584E+3,	20.026998E-12
1.547588E+3,	6.810223E-12
1.547592E+3,	3.057311E-12
1.547596E+3,	5.934649E-12
1.547600E+3,	13.928981E-12
1.547604E+3,	0.000000E+0
1.547608E+3,	0.000000E+0
1.547612E+3,	0.000000E+0
1.547616E+3,	5.667204E-12
1.547620E+3,	8.385646E-12
1.547624E+3,	0.000000E+0
1.547628E+3,	9.970766E-12
1.547632E+3,	34.103740E-12
1.547636E+3,	25.725747E-12
1.547640E+3,	9.317935E-12
1.547644E+3,	16.422909E-12
1.547648E+3,	14.210539E-12
1.547652E+3,	14.283075E-12
1.547656E+3,	4.195135E-12
1.547660E+3,	4.262507E-12
1.547664E+3,	9.713259E-12
1.547668E+3,	3.384430E-12
1.547672E+3,	14.827100E-12
1.547676E+3,	16.701322E-12
1.547680E+3,	14.707795E-12
1.547684E+3,	9.006029E-12
1.547688E+3,	7.410220E-12
1.547692E+3,	3.475102E-12
1.547696E+3,	21.104732E-12
1.547700E+3,	24.213927E-12
1.547704E+3,	7.428354E-12
1.547708E+3,	15.889762E-12
1.547712E+3,	13.143647E-12
1.547716E+3,	3.240103E-12
1.547720E+3,	0.000000E+0
1.547724E+3,	13.978014E-12
1.547728E+3,	5.326014E-12
1.547732E+3,	14.358917E-12
1.547736E+3,	2.109123E-12
1.547740E+3,	36.500125E-12
1.547744E+3,	0.000000E+0
1.547748E+3,	6.214794E-12
1.547752E+3,	11.202841E-12
1.547756E+3,	17.767865E-12
1.547760E+3,	18.331220E-12
1.547764E+3,	16.988979E-12
1.547768E+3,	9.425283E-12
1.547772E+3,	0.000000E+0
1.547776E+3,	16.538719E-12
1.547780E+3,	19.866296E-12
1.547784E+3,	21.686815E-12
1.547788E+3,	22.648149E-12
1.547792E+3,	3.425839E-12
1.547796E+3,	22.024848E-12
1.547800E+3,	21.008439E-12
1.547804E+3,	2.315046E-12
1.547808E+3,	25.296346E-12
1.547812E+3,	27.599922E-12
1.547816E+3,	18.958592E-12
1.547820E+3,	19.545532E-12
1.547824E+3,	22.199799E-12
1.547828E+3,	9.572594E-12
1.547832E+3,	4.311259E-12
1.547836E+3,	20.909543E-12
1.547840E+3,	10.337446E-12
1.547844E+3,	19.061143E-12
1.547848E+3,	25.102609E-12
1.547852E+3,	14.289654E-12
1.547856E+3,	27.146308E-12
1.547860E+3,	6.395740E-12
1.547864E+3,	9.699593E-12
1.547868E+3,	1.081887E-12
1.547872E+3,	0.000000E+0
1.547876E+3,	13.822894E-12
1.547880E+3,	25.128007E-12
1.547884E+3,	20.367401E-12
1.547888E+3,	11.296136E-12
1.547892E+3,	9.790305E-12
1.547896E+3,	11.330285E-12
1.547900E+3,	3.416545E-12
1.547904E+3,	8.611040E-12
1.547908E+3,	4.891820E-12
1.547912E+3,	36.405409E-12
1.547916E+3,	15.210654E-12
1.547920E+3,	8.481176E-12
1.547924E+3,	28.549688E-12
1.547928E+3,	13.981231E-12
1.547932E+3,	11.949267E-12
1.547936E+3,	8.911910E-12
1.547940E+3,	18.706415E-12
1.547944E+3,	27.249701E-12
1.547948E+3,	26.124599E-12
1.547952E+3,	11.371324E-12
1.547956E+3,	8.573430E-12
1.547960E+3,	7.342752E-12
1.547964E+3,	26.378658E-12
1.547968E+3,	9.919587E-12
1.547972E+3,	31.350858E-12
1.547976E+3,	12.611900E-12
1.547980E+3,	7.473409E-12
1.547984E+3,	7.814567E-12
1.547988E+3,	0.000000E+0
1.547992E+3,	1.916885E-12
1.547996E+3,	10.935804E-12
1.548000E+3,	0.000000E+0
1.548004E+3,	0.000000E+0
1.548008E+3,	25.035800E-12
1.548012E+3,	31.441592E-12
1.548016E+3,	15.935154E-12
1.548020E+3,	31.091544E-12
1.548024E+3,	18.144229E-12
1.548028E+3,	20.086369E-12
1.548032E+3,	14.187331E-12
1.548036E+3,	16.396403E-12
1.548040E+3,	29.188564E-12
1.548044E+3,	8.202618E-12
1.548048E+3,	42.139703E-12
1.548052E+3,	16.482594E-12
1.548056E+3,	17.124146E-12
1.548060E+3,	11.555453E-12
1.548064E+3,	19.759655E-12
1.548068E+3,	9.034557E-12
1.548072E+3,	19.283631E-12
1.548076E+3,	0.000000E+0
1.548080E+3,	22.414848E-12
1.548084E+3,	14.916802E-12
1.548088E+3,	0.000000E+0
1.548092E+3,	4.751027E-12
1.548096E+3,	13.050653E-12
1.548100E+3,	22.033590E-12
1.548104E+3,	18.565971E-12
1.548108E+3,	14.789716E-12
1.548112E+3,	0.000000E+0
1.548116E+3,	6.537757E-12
1.548120E+3,	22.873991E-12
1.548124E+3,	19.189116E-12
1.548128E+3,	13.031674E-12
1.548132E+3,	27.755527E-12
1.548136E+3,	40.187025E-12
1.548140E+3,	6.966479E-12
1.548144E+3,	2.626420E-12
1.548148E+3,	14.403523E-12
1.548152E+3,	5.234089E-12
1.548156E+3,	26.088178E-12
1.548160E+3,	29.810823E-12
1.548164E+3,	12.904560E-12
1.548168E+3,	15.160581E-12
1.548172E+3,	11.080987E-12
1.548176E+3,	0.000000E+0
1.548180E+3,	0.000000E+0
1.548184E+3,	0.000000E+0
1.548188E+3,	27.716074E-12
1.548192E+3,	38.454881E-12
1.548196E+3,	14.142646E-12
1.548200E+3,	6.386856E-12
1.548204E+3,	35.975093E-12
1.548208E+3,	7.035398E-12
1.548212E+3,	0.000000E+0
1.548216E+3,	6.272791E-12
1.548220E+3,	0.000000E+0
1.548224E+3,	0.000000E+0
1.548228E+3,	0.000000E+0
1.548232E+3,	418.447464E-15
1.548236E+3,	11.656939E-12
1.548240E+3,	0.000000E+0
1.548244E+3,	2.317712E-12
1.548248E+3,	0.000000E+0
1.548252E+3,	2.518625E-12
1.548256E+3,	8.077917E-12
1.548260E+3,	1.973596E-12
1.548264E+3,	12.564252E-12
1.548268E+3,	24.143828E-12
1.548272E+3,	10.875728E-12
1.548276E+3,	14.872605E-12
1.548280E+3,	0.000000E+0
1.548284E+3,	0.000000E+0
1.548288E+3,	0.000000E+0
1.548292E+3,	5.263147E-12
1.548296E+3,	20.894533E-12
1.548300E+3,	9.297288E-12
1.548304E+3,	15.946516E-12
1.548308E+3,	16.293429E-12
1.548312E+3,	5.099601E-12
1.548316E+3,	26.669528E-12
1.548320E+3,	20.600150E-12
1.548324E+3,	14.042267E-12
1.548328E+3,	21.945820E-12
1.548332E+3,	0.000000E+0
1.548336E+3,	23.258586E-12
1.548340E+3,	0.000000E+0
1.548344E+3,	17.519756E-12
1.548348E+3,	13.243617E-12
1.548352E+3,	17.805792E-12
1.548356E+3,	6.845670E-12
1.548360E+3,	25.502786E-12
1.548364E+3,	27.139639E-12
1.548368E+3,	45.742286E-12
1.548372E+3,	33.019094E-12
1.548376E+3,	37.344980E-12
1.548380E+3,	45.970308E-12
1.548384E+3,	44.072975E-12
1.548388E+3,	41.589556E-12
1.548392E+3,	29.881524E-12
1.548396E+3,	50.825081E-12
1.548400E+3,	58.105420E-12
1.548404E+3,	78.564397E-12
1.548408E+3,	49.352496E-12
1.548412E+3,	89.148890E-12
1.548416E+3,	79.804282E-12
1.548420E+3,	85.708563E-12
1.548424E+3,	97.417050E-12
1.548428E+3,	108.856210E-12
1.548432E+3,	128.781673E-12
1.548436E+3,	131.771099E-12
1.548440E+3,	118.663495E-12
1.548444E+3,	152.614682E-12
1.548448E+3,	150.650742E-12
1.548452E+3,	154.160323E-12
1.548456E+3,	166.826260E-12
1.548460E+3,	195.841758E-12
1.548464E+3,	189.928940E-12
1.548468E+3,	186.052054E-12
1.548472E+3,	200.839590E-12
1.548476E+3,	212.388282E-12
1.548480E+3,	262.404559E-12
1.548484E+3,	251.392120E-12
1.548488E+3,	273.603642E-12
1.548492E+3,	291.301064E-12
1.548496E+3,	327.274832E-12
1.548500E+3,	337.573692E-12
1.548504E+3,	359.035309E-12
1.548508E+3,	386.208926E-12
1.548512E+3,	384.317349E-12
1.548516E+3,	445.098101E-12
1.548520E+3,	446.681969E-12
1.548524E+3,	490.920426E-12
1.548528E+3,	491.738785E-12
1.548532E+3,	539.447483E-12
1.548536E+3,	580.433695E-12
1.548540E+3,	615.801029E-12
1.548544E+3,	648.127789E-12
1.548548E+3,	693.479398E-12
1.548552E+3,	729.530363E-12
1.548556E+3,	789.076423E-12
1.548560E+3,	826.493048E-12
1.548564E+3,	865.767508E-12
1.548568E+3,	916.543336E-12
1.548572E+3,	981.860220E-12
1.548576E+3,	1.053189E-9
1.548580E+3,	1.098416E-9
1.548584E+3,	1.137003E-9
1.548588E+3,	1.195038E-9
1.548592E+3,	1.238048E-9
1.548596E+3,	1.319306E-9
1.548600E+3,	1.394533E-9
1.548604E+3,	1.440134E-9
1.548608E+3,	1.462917E-9
1.548612E+3,	1.553766E-9
1.548616E+3,	1.625221E-9
1.548620E+3,	1.682827E-9
1.548624E+3,	1.754268E-9
1.548628E+3,	1.823307E-9
1.548632E+3,	1.909492E-9
1.548636E+3,	1.969155E-9
1.548640E+3,	2.031855E-9
1.548644E+3,	2.085998E-9
1.548648E+3,	2.177907E-9
1.548652E+3,	2.272443E-9
1.548656E+3,	2.348556E-9
1.548660E+3,	2.422125E-9
1.548664E+3,	2.488869E-9
1.548668E+3,	2.638572E-9
1.548672E+3,	2.741711E-9
1.548676E+3,	2.817289E-9
1.548680E+3,	2.927133E-9
1.548684E+3,	3.015263E-9
1.548688E+3,	3.181046E-9
1.548692E+3,	3.316368E-9
1.548696E+3,	3.432669E-9
1.548700E+3,	3.547789E-9
1.548704E+3,	3.666233E-9
1.548708E+3,	3.828829E-9
1.548712E+3,	3.986504E-9
1.548716E+3,	4.093019E-9
1.548720E+3,	4.225904E-9
1.548724E+3,	4.383467E-9
1.548728E+3,	4.578954E-9
1.548732E+3,	4.746893E-9
1.548736E+3,	4.882365E-9
1.548740E+3,	5.050273E-9
1.548744E+3,	5.208620E-9
1.548748E+3,	5.376461E-9
1.548752E+3,	5.549320E-9
1.548756E+3,	5.689716E-9
1.548760E+3,	5.849832E-9
1.548764E+3,	6.021883E-9
1.548768E+3,	6.205224E-9
1.548772E+3,	6.363340E-9
1.548776E+3,	6.574753E-9
1.548780E+3,	6.763402E-9
1.548784E+3,	7.002265E-9
1.548788E+3,	7.240683E-9
1.548792E+3,	7.420017E-9
1.548796E+3,	7.644396E-9
1.548800E+3,	7.855990E-9
1.548804E+3,	8.156715E-9
1.548808E+3,	8.380241E-9
1.548812E+3,	8.618424E-9
1.548816E+3,	8.858005E-9
1.548820E+3,	9.078244E-9
1.548824E+3,	9.386526E-9
1.548828E+3,	9.655936E-9
1.548832E+3,	9.941520E-9
1.548836E+3,	10.203052E-9
1.548840E+3,	10.525796E-9
1.548844E+3,	10.822502E-9
1.548848E+3,	11.034051E-9
1.548852E+3,	11.314738E-9
1.548856E+3,	11.583993E-9
1.548860E+3,	11.915472E-9
1.548864E+3,	12.192692E-9
1.548868E+3,	12.440060E-9
1.548872E+3,	12.719413E-9
1.548876E+3,	13.044019E-9
1.548880E+3,	13.438188E-9
1.548884E+3,	13.824847E-9
1.548888E+3,	14.171907E-9
1.548892E+3,	14.555150E-9
1.548896E+3,	14.968501E-9
1.548900E+3,	15.463180E-9
1.548904E+3,	15.935594E-9
1.548908E+3,	16.363553E-9
1.548912E+3,	16.862143E-9
1.548916E+3,	17.365129E-9
1.548920E+3,	17.866432E-9
1.548924E+3,	18.294876E-9
1.548928E+3,	18.684079E-9
1.548932E+3,	19.121045E-9
1.548936E+3,	19.567878E-9
1.548940E+3,	19.999999E-9
1.548944E+3,	20.325486E-9
1.548948E+3,	20.682405E-9
1.548952E+3,	21.080956E-9
1.548956E+3,	21.545111E-9
1.548960E+3,	22.000112E-9
1.548964E+3,	22.391034E-9
1.548968E+3,	22.756759E-9
1.548972E+3,	23.165015E-9
1.548976E+3,	23.708171E-9
1.548980E+3,	24.260521E-9
1.548984E+3,	24.708785E-9
1.548988E+3,	25.278139E-9
1.548992E+3,	25.845615E-9
1.548996E+3,	26.560691E-9
1.549000E+3,	27.275566E-9
1.549004E+3,	27.890111E-9
1.549008E+3,	28.615574E-9
1.549012E+3,	29.532790E-9
1.549016E+3,	30.413527E-9
1.549020E+3,	31.195114E-9
1.549024E+3,	32.018878E-9
1.549028E+3,	32.852468E-9
1.549032E+3,	33.748044E-9
1.549036E+3,	34.553386E-9
1.549040E+3,	35.206116E-9
1.549044E+3,	35.892123E-9
1.549048E+3,	36.500272E-9
1.549052E+3,	37.191497E-9
1.549056E+3,	37.775299E-9
1.549060E+3,	38.193710E-9
1.549064E+3,	38.710687E-9
1.549068E+3,	39.334419E-9
1.549072E+3,	39.922993E-9
1.549076E+3,	40.381655E-9
1.549080E+3,	40.880810E-9
1.549084E+3,	41.365284E-9
1.549088E+3,	42.086845E-9
1.549092E+3,	42.726801E-9
1.549096E+3,	43.334844E-9
1.549100E+3,	44.016858E-9
1.549104E+3,	44.699493E-9
1.549108E+3,	45.520898E-9
1.549112E+3,	46.302916E-9
1.549116E+3,	47.099618E-9
1.549120E+3,	47.994379E-9
1.549124E+3,	49.096993E-9
1.549128E+3,	50.180920E-9
1.549132E+3,	51.098106E-9
1.549136E+3,	52.108924E-9
1.549140E+3,	53.075809E-9
1.549144E+3,	54.231338E-9
1.549148E+3,	55.174477E-9
1.549152E+3,	55.909135E-9
1.549156E+3,	56.574662E-9
1.549160E+3,	57.160864E-9
1.549164E+3,	57.668568E-9
1.549168E+3,	58.093872E-9
1.549172E+3,	58.384478E-9
1.549176E+3,	58.621397E-9
1.549180E+3,	58.979232E-9
1.549184E+3,	59.305839E-9
1.549188E+3,	59.578483E-9
1.549192E+3,	59.976499E-9
1.549196E+3,	60.396516E-9
1.549200E+3,	60.933282E-9
1.549204E+3,	61.505205E-9
1.549208E+3,	62.042711E-9
1.549212E+3,	62.623615E-9
1.549216E+3,	63.352027E-9
1.549220E+3,	64.128165E-9
1.549224E+3,	64.786345E-9
1.549228E+3,	65.599287E-9
1.549232E+3,	66.452366E-9
1.549236E+3,	67.529453E-9
1.549240E+3,	68.537655E-9
1.549244E+3,	69.372242E-9
1.549248E+3,	70.289015E-9
1.549252E+3,	71.204356E-9
1.549256E+3,	72.131934E-9
1.549260E+3,	72.836025E-9
1.549264E+3,	73.269648E-9
1.549268E+3,	73.580779E-9
1.549272E+3,	73.799699E-9
1.549276E+3,	73.821459E-9
1.549280E+3,	73.666848E-9
1.549284E+3,	73.465026E-9
1.549288E+3,	73.270571E-9
1.549292E+3,	72.972034E-9
1.549296E+3,	72.826632E-9
1.549300E+3,	72.650611E-9
1.549304E+3,	72.565445E-9
1.549308E+3,	72.560837E-9
1.549312E+3,	72.705600E-9
1.549316E+3,	72.972286E-9
1.549320E+3,	73.250854E-9
1.549324E+3,	73.611698E-9
1.549328E+3,	74.248539E-9
1.549332E+3,	74.991683E-9
1.549336E+3,	75.733450E-9
1.549340E+3,	76.619653E-9
1.549344E+3,	77.651160E-9
1.549348E+3,	78.811649E-9
1.549352E+3,	80.039937E-9
1.549356E+3,	81.125195E-9
1.549360E+3,	82.233067E-9
1.549364E+3,	83.575752E-9
1.549368E+3,	84.630739E-9
1.549372E+3,	85.350882E-9
1.549376E+3,	85.944346E-9
1.549380E+3,	86.322650E-9
1.549384E+3,	86.543064E-9
1.549388E+3,	86.513079E-9
1.549392E+3,	86.327434E-9
1.549396E+3,	85.957862E-9
1.549400E+3,	85.531123E-9
1.549404E+3,	84.986620E-9
1.549408E+3,	84.394939E-9
1.549412E+3,	83.945555E-9
1.549416E+3,	83.506242E-9
1.549420E+3,	83.149499E-9
1.549424E+3,	82.981788E-9
1.549428E+3,	83.002846E-9
1.549432E+3,	83.139379E-9
1.549436E+3,	83.428712E-9
1.549440E+3,	84.021652E-9
1.549444E+3,	84.780957E-9
1.549448E+3,	85.563447E-9
1.549452E+3,	86.500351E-9
1.549456E+3,	87.438347E-9
1.549460E+3,	88.839684E-9
1.549464E+3,	90.267989E-9
1.549468E+3,	91.453791E-9
1.549472E+3,	92.754650E-9
1.549476E+3,	94.155011E-9
1.549480E+3,	95.305973E-9
1.549484E+3,	96.012998E-9
1.549488E+3,	96.671654E-9
1.549492E+3,	96.996904E-9
1.549496E+3,	97.043881E-9
1.549500E+3,	96.884031E-9
1.549504E+3,	96.546875E-9
1.549508E+3,	96.082440E-9
1.549512E+3,	95.419381E-9
1.549516E+3,	94.727682E-9
1.549520E+3,	94.165486E-9
1.549524E+3,	93.604875E-9
1.549528E+3,	93.191972E-9
1.549532E+3,	92.874906E-9
1.549536E+3,	92.800089E-9
1.549540E+3,	92.920348E-9
1.549544E+3,	93.207058E-9
1.549548E+3,	93.751061E-9
1.549552E+3,	94.689967E-9
1.549556E+3,	95.729123E-9
1.549560E+3,	96.769482E-9
1.549564E+3,	97.957517E-9
1.549568E+3,	99.635074E-9
1.549572E+3,	101.260831E-9
1.549576E+3,	102.691905E-9
1.549580E+3,	104.200085E-9
1.549584E+3,	105.604501E-9
1.549588E+3,	107.017800E-9
1.549592E+3,	108.069290E-9
1.549596E+3,	108.682860E-9
1.549600E+3,	109.075590E-9
1.549604E+3,	109.153413E-9
1.549608E+3,	108.687123E-9
1.549612E+3,	107.898388E-9
1.549616E+3,	106.959059E-9
1.549620E+3,	105.693621E-9
1.549624E+3,	103.994629E-9
1.549628E+3,	102.382173E-9
1.549632E+3,	101.164401E-9
1.549636E+3,	99.877123E-9
1.549640E+3,	98.737502E-9
1.549644E+3,	97.526519E-9
1.549648E+3,	96.715465E-9
1.549652E+3,	96.270105E-9
1.549656E+3,	95.996038E-9
1.549660E+3,	95.937633E-9
1.549664E+3,	96.270512E-9
1.549668E+3,	96.694419E-9
1.549672E+3,	97.308577E-9
1.549676E+3,	98.040667E-9
1.549680E+3,	99.203007E-9
1.549684E+3,	100.383295E-9
1.549688E+3,	101.315724E-9
1.549692E+3,	102.324664E-9
1.549696E+3,	103.120824E-9
1.549700E+3,	103.914896E-9
1.549704E+3,	104.404237E-9
1.549708E+3,	104.554072E-9
1.549712E+3,	104.416552E-9
1.549716E+3,	103.800435E-9
1.549720E+3,	102.899069E-9
1.549724E+3,	101.971853E-9
1.549728E+3,	100.655784E-9
1.549732E+3,	99.143068E-9
1.549736E+3,	97.068285E-9
1.549740E+3,	95.096857E-9
1.549744E+3,	93.499036E-9
1.549748E+3,	91.940073E-9
1.549752E+3,	90.451971E-9
1.549756E+3,	88.941840E-9
1.549760E+3,	87.805824E-9
1.549764E+3,	87.039529E-9
1.549768E+3,	86.551542E-9
1.549772E+3,	86.247873E-9
1.549776E+3,	86.280218E-9
1.549780E+3,	86.661349E-9
1.549784E+3,	87.316019E-9
1.549788E+3,	88.152560E-9
1.549792E+3,	89.433423E-9
1.549796E+3,	90.762185E-9
1.549800E+3,	91.888838E-9
1.549804E+3,	93.016312E-9
1.549808E+3,	94.352286E-9
1.549812E+3,	95.416706E-9
1.549816E+3,	96.138656E-9
1.549820E+3,	96.700383E-9
1.549824E+3,	97.056274E-9
1.549828E+3,	97.142367E-9
1.549832E+3,	96.815973E-9
1.549836E+3,	96.265449E-9
1.549840E+3,	95.390956E-9
1.549844E+3,	94.288283E-9
1.549848E+3,	92.696505E-9
1.549852E+3,	91.152715E-9
1.549856E+3,	89.809869E-9
1.549860E+3,	88.255364E-9
1.549864E+3,	86.276203E-9
1.549868E+3,	84.608547E-9
1.549872E+3,	83.410199E-9
1.549876E+3,	82.326758E-9
1.549880E+3,	81.473639E-9
1.549884E+3,	80.839095E-9
1.549888E+3,	80.621326E-9
1.549892E+3,	80.617139E-9
1.549896E+3,	80.841192E-9
1.549900E+3,	81.365146E-9
1.549904E+3,	82.390145E-9
1.549908E+3,	83.488820E-9
1.549912E+3,	84.497812E-9
1.549916E+3,	85.609610E-9
1.549920E+3,	87.012410E-9
1.549924E+3,	88.212103E-9
1.549928E+3,	89.062944E-9
1.549932E+3,	89.798183E-9
1.549936E+3,	90.348617E-9
1.549940E+3,	90.664742E-9
1.549944E+3,	90.712268E-9
1.549948E+3,	90.458205E-9
1.549952E+3,	89.857221E-9
1.549956E+3,	89.084828E-9
1.549960E+3,	87.904163E-9
1.549964E+3,	86.745457E-9
1.549968E+3,	85.574423E-9
1.549972E+3,	84.200435E-9
1.549976E+3,	82.489709E-9
1.549980E+3,	81.103504E-9
1.549984E+3,	80.083826E-9
1.549988E+3,	79.208865E-9
1.549992E+3,	78.549162E-9
1.549996E+3,	78.019102E-9
1.550000E+3,	78.002552E-9
1.550004E+3,	78.315126E-9
1.550008E+3,	79.071051E-9
1.550012E+3,	80.319003E-9
1.550016E+3,	81.751436E-9
1.550020E+3,	83.146810E-9
1.550024E+3,	84.843602E-9
1.550028E+3,	86.590033E-9
1.550032E+3,	88.448768E-9
1.550036E+3,	89.988718E-9
1.550040E+3,	91.089255E-9
1.550044E+3,	92.067870E-9
1.550048E+3,	92.873991E-9
1.550052E+3,	93.277055E-9
1.550056E+3,	93.164480E-9
1.550060E+3,	92.816570E-9
1.550064E+3,	92.276211E-9
1.550068E+3,	91.160429E-9
1.550072E+3,	89.864633E-9
1.550076E+3,	88.614031E-9
1.550080E+3,	87.052202E-9
1.550084E+3,	85.131321E-9
1.550088E+3,	83.396192E-9
1.550092E+3,	82.065038E-9
1.550096E+3,	80.702833E-9
1.550100E+3,	79.435081E-9
1.550104E+3,	78.310036E-9
1.550108E+3,	77.824161E-9
1.550112E+3,	77.775094E-9
1.550116E+3,	78.070623E-9
1.550120E+3,	79.060649E-9
1.550124E+3,	80.256500E-9
1.550128E+3,	81.504908E-9
1.550132E+3,	83.057635E-9
1.550136E+3,	85.133633E-9
1.550140E+3,	87.158928E-9
1.550144E+3,	88.681341E-9
1.550148E+3,	90.131710E-9
1.550152E+3,	91.448817E-9
1.550156E+3,	92.634002E-9
1.550160E+3,	93.549692E-9
1.550164E+3,	94.063886E-9
1.550168E+3,	94.250487E-9
1.550172E+3,	94.061040E-9
1.550176E+3,	93.513876E-9
1.550180E+3,	92.892806E-9
1.550184E+3,	91.907735E-9
1.550188E+3,	90.633974E-9
1.550192E+3,	88.960620E-9
1.550196E+3,	87.378803E-9
1.550200E+3,	86.144083E-9
1.550204E+3,	84.803068E-9
1.550208E+3,	83.400405E-9
1.550212E+3,	82.384191E-9
1.550216E+3,	81.800294E-9
1.550220E+3,	81.428634E-9
1.550224E+3,	81.436444E-9
1.550228E+3,	81.827500E-9
1.550232E+3,	82.515200E-9
1.550236E+3,	83.352676E-9
1.550240E+3,	84.612115E-9
1.550244E+3,	86.304233E-9
1.550248E+3,	87.961647E-9
1.550252E+3,	89.251341E-9
1.550256E+3,	90.677370E-9
1.550260E+3,	91.889076E-9
1.550264E+3,	93.126309E-9
1.550268E+3,	93.919983E-9
1.550272E+3,	94.180817E-9
1.550276E+3,	94.189770E-9
1.550280E+3,	93.693623E-9
1.550284E+3,	92.953743E-9
1.550288E+3,	92.083646E-9
1.550292E+3,	90.831844E-9
1.550296E+3,	89.396238E-9
1.550300E+3,	87.547809E-9
1.550304E+3,	85.898774E-9
1.550308E+3,	84.498847E-9
1.550312E+3,	82.818081E-9
1.550316E+3,	80.934025E-9
1.550320E+3,	79.348300E-9
1.550324E+3,	78.198055E-9
1.550328E+3,	77.278265E-9
1.550332E+3,	76.701753E-9
1.550336E+3,	76.517180E-9
1.550340E+3,	76.841323E-9
1.550344E+3,	77.533566E-9
1.550348E+3,	78.713427E-9
1.550352E+3,	80.458583E-9
1.550356E+3,	82.345715E-9
1.550360E+3,	84.002615E-9
1.550364E+3,	85.967832E-9
1.550368E+3,	88.066108E-9
1.550372E+3,	89.826173E-9
1.550376E+3,	90.949390E-9
1.550380E+3,	91.952379E-9
1.550384E+3,	92.640969E-9
1.550388E+3,	92.941222E-9
1.550392E+3,	92.870374E-9
1.550396E+3,	92.516677E-9
1.550400E+3,	91.734240E-9
1.550404E+3,	90.439278E-9
1.550408E+3,	88.987612E-9
1.550412E+3,	87.572832E-9
1.550416E+3,	85.788933E-9
1.550420E+3,	83.913114E-9
1.550424E+3,	81.557524E-9
1.550428E+3,	79.470512E-9
1.550432E+3,	77.884278E-9
1.550436E+3,	76.397667E-9
1.550440E+3,	74.944883E-9
1.550444E+3,	74.165210E-9
1.550448E+3,	73.869584E-9
1.550452E+3,	73.911409E-9
1.550456E+3,	74.423977E-9
1.550460E+3,	75.653329E-9
1.550464E+3,	77.043840E-9
1.550468E+3,	78.402700E-9
1.550472E+3,	80.018281E-9
1.550476E+3,	82.187078E-9
1.550480E+3,	84.177027E-9
1.550484E+3,	85.631712E-9
1.550488E+3,	87.017971E-9
1.550492E+3,	88.207032E-9
1.550496E+3,	89.232231E-9
1.550500E+3,	89.839062E-9
1.550504E+3,	90.036109E-9
1.550508E+3,	89.946302E-9
1.550512E+3,	89.509614E-9
1.550516E+3,	88.782930E-9
1.550520E+3,	87.964889E-9
1.550524E+3,	86.982096E-9
1.550528E+3,	85.837708E-9
1.550532E+3,	84.233954E-9
1.550536E+3,	82.729614E-9
1.550540E+3,	81.570332E-9
1.550544E+3,	80.390720E-9
1.550548E+3,	79.197980E-9
1.550552E+3,	78.391039E-9
1.550556E+3,	77.954890E-9
1.550560E+3,	77.771716E-9
1.550564E+3,	77.852798E-9
1.550568E+3,	78.413400E-9
1.550572E+3,	79.300815E-9
1.550576E+3,	80.202278E-9
1.550580E+3,	81.377557E-9
1.550584E+3,	83.192601E-9
1.550588E+3,	84.956736E-9
1.550592E+3,	86.354715E-9
1.550596E+3,	87.870235E-9
1.550600E+3,	89.227458E-9
1.550604E+3,	90.576124E-9
1.550608E+3,	91.489405E-9
1.550612E+3,	91.956912E-9
1.550616E+3,	92.101681E-9
1.550620E+3,	91.896131E-9
1.550624E+3,	91.358526E-9
1.550628E+3,	90.675073E-9
1.550632E+3,	89.717667E-9
1.550636E+3,	88.281207E-9
1.550640E+3,	86.856390E-9
1.550644E+3,	85.708540E-9
1.550648E+3,	84.385454E-9
1.550652E+3,	83.098209E-9
1.550656E+3,	81.569629E-9
1.550660E+3,	80.394943E-9
1.550664E+3,	79.555342E-9
1.550668E+3,	78.820178E-9
1.550672E+3,	78.400985E-9
1.550676E+3,	78.303781E-9
1.550680E+3,	78.584363E-9
1.550684E+3,	79.199723E-9
1.550688E+3,	80.121469E-9
1.550692E+3,	81.518276E-9
1.550696E+3,	83.135813E-9
1.550700E+3,	84.550457E-9
1.550704E+3,	86.108279E-9
1.550708E+3,	87.878289E-9
1.550712E+3,	89.370596E-9
1.550716E+3,	90.302371E-9
1.550720E+3,	91.116283E-9
1.550724E+3,	91.679239E-9
1.550728E+3,	91.875518E-9
1.550732E+3,	91.607149E-9
1.550736E+3,	91.078123E-9
1.550740E+3,	90.242477E-9
1.550744E+3,	88.837700E-9
1.550748E+3,	87.281215E-9
1.550752E+3,	85.798724E-9
1.550756E+3,	84.136373E-9
1.550760E+3,	82.584377E-9
1.550764E+3,	80.746566E-9
1.550768E+3,	79.203522E-9
1.550772E+3,	78.075559E-9
1.550776E+3,	77.111673E-9
1.550780E+3,	76.483234E-9
1.550784E+3,	76.331214E-9
1.550788E+3,	76.484434E-9
1.550792E+3,	76.959421E-9
1.550796E+3,	77.690982E-9
1.550800E+3,	79.022717E-9
1.550804E+3,	80.457743E-9
1.550808E+3,	81.730093E-9
1.550812E+3,	83.176820E-9
1.550816E+3,	84.889423E-9
1.550820E+3,	86.365501E-9
1.550824E+3,	87.432828E-9
1.550828E+3,	88.413309E-9
1.550832E+3,	89.081022E-9
1.550836E+3,	89.475954E-9
1.550840E+3,	89.463127E-9
1.550844E+3,	89.075309E-9
1.550848E+3,	88.358887E-9
1.550852E+3,	87.022148E-9
1.550856E+3,	85.510940E-9
1.550860E+3,	84.156205E-9
1.550864E+3,	82.470065E-9
1.550868E+3,	80.378935E-9
1.550872E+3,	78.513253E-9
1.550876E+3,	77.200552E-9
1.550880E+3,	75.938840E-9
1.550884E+3,	75.016609E-9
1.550888E+3,	74.209987E-9
1.550892E+3,	73.851814E-9
1.550896E+3,	73.851886E-9
1.550900E+3,	74.260123E-9
1.550904E+3,	75.151034E-9
1.550908E+3,	76.295788E-9
1.550912E+3,	77.405437E-9
1.550916E+3,	78.799488E-9
1.550920E+3,	80.206680E-9
1.550924E+3,	82.074096E-9
1.550928E+3,	83.715034E-9
1.550932E+3,	84.937017E-9
1.550936E+3,	86.064323E-9
1.550940E+3,	87.077125E-9
1.550944E+3,	87.659559E-9
1.550948E+3,	87.837533E-9
1.550952E+3,	87.685859E-9
1.550956E+3,	87.164994E-9
1.550960E+3,	86.031520E-9
1.550964E+3,	84.590011E-9
1.550968E+3,	83.112885E-9
1.550972E+3,	81.312031E-9
1.550976E+3,	78.968109E-9
1.550980E+3,	76.852055E-9
1.550984E+3,	75.127615E-9
1.550988E+3,	73.319644E-9
1.550992E+3,	71.699920E-9
1.550996E+3,	70.193741E-9
1.551000E+3,	69.265558E-9
1.551004E+3,	68.862918E-9
1.551008E+3,	68.775536E-9
1.551012E+3,	69.137298E-9
1.551016E+3,	69.913236E-9
1.551020E+3,	70.844109E-9
1.551024E+3,	72.121294E-9
1.551028E+3,	74.034836E-9
1.551032E+3,	76.036814E-9
1.551036E+3,	77.808527E-9
1.551040E+3,	79.885631E-9
1.551044E+3,	81.938321E-9
1.551048E+3,	84.027414E-9
1.551052E+3,	85.717257E-9
1.551056E+3,	86.913546E-9
1.551060E+3,	87.893944E-9
1.551064E+3,	88.474588E-9
1.551068E+3,	88.541931E-9
1.551072E+3,	88.163446E-9
1.551076E+3,	87.443887E-9
1.551080E+3,	86.253307E-9
1.551084E+3,	84.755701E-9
1.551088E+3,	83.232743E-9
1.551092E+3,	81.477118E-9
1.551096E+3,	79.722206E-9
1.551100E+3,	77.706296E-9
1.551104E+3,	76.024425E-9
1.551108E+3,	74.803368E-9
1.551112E+3,	73.670021E-9
1.551116E+3,	72.788394E-9
1.551120E+3,	72.460305E-9
1.551124E+3,	72.560510E-9
1.551128E+3,	73.011119E-9
1.551132E+3,	74.100054E-9
1.551136E+3,	75.642881E-9
1.551140E+3,	77.111982E-9
1.551144E+3,	78.909004E-9
1.551148E+3,	81.018745E-9
1.551152E+3,	82.982626E-9
1.551156E+3,	84.521577E-9
1.551160E+3,	86.025519E-9
1.551164E+3,	87.398411E-9
1.551168E+3,	88.509061E-9
1.551172E+3,	89.097743E-9
1.551176E+3,	89.269096E-9
1.551180E+3,	88.993420E-9
1.551184E+3,	88.143715E-9
1.551188E+3,	86.887680E-9
1.551192E+3,	85.577601E-9
1.551196E+3,	83.734645E-9
1.551200E+3,	81.248026E-9
1.551204E+3,	78.790624E-9
1.551208E+3,	76.813688E-9
1.551212E+3,	74.687326E-9
1.551216E+3,	72.714356E-9
1.551220E+3,	70.603977E-9
1.551224E+3,	69.093673E-9
1.551228E+3,	68.339358E-9
1.551232E+3,	67.919304E-9
1.551236E+3,	68.215216E-9
1.551240E+3,	68.990494E-9
1.551244E+3,	70.023269E-9
1.551248E+3,	71.615807E-9
1.551252E+3,	73.878504E-9
1.551256E+3,	76.270412E-9
1.551260E+3,	78.260159E-9
1.551264E+3,	80.291166E-9
1.551268E+3,	82.337678E-9
1.551272E+3,	84.599702E-9
1.551276E+3,	86.448531E-9
1.551280E+3,	87.625069E-9
1.551284E+3,	88.695154E-9
1.551288E+3,	89.408615E-9
1.551292E+3,	89.562170E-9
1.551296E+3,	89.305431E-9
1.551300E+3,	88.626730E-9
1.551304E+3,	87.082679E-9
1.551308E+3,	85.396051E-9
1.551312E+3,	83.926365E-9
1.551316E+3,	82.199618E-9
1.551320E+3,	80.252998E-9
1.551324E+3,	77.820993E-9
1.551328E+3,	75.694166E-9
1.551332E+3,	74.220507E-9
1.551336E+3,	72.892320E-9
1.551340E+3,	71.699689E-9
1.551344E+3,	70.913496E-9
1.551348E+3,	70.521725E-9
1.551352E+3,	70.404972E-9
1.551356E+3,	70.759993E-9
1.551360E+3,	71.411119E-9
1.551364E+3,	72.167769E-9
1.551368E+3,	73.139003E-9
1.551372E+3,	74.541585E-9
1.551376E+3,	76.017496E-9
1.551380E+3,	77.199179E-9
1.551384E+3,	78.559359E-9
1.551388E+3,	79.749963E-9
1.551392E+3,	80.958365E-9
1.551396E+3,	81.749221E-9
1.551400E+3,	82.127790E-9
1.551404E+3,	82.284365E-9
1.551408E+3,	82.084475E-9
1.551412E+3,	81.499001E-9
1.551416E+3,	80.735828E-9
1.551420E+3,	79.716822E-9
1.551424E+3,	78.167458E-9
1.551428E+3,	76.595712E-9
1.551432E+3,	75.230846E-9
1.551436E+3,	73.699488E-9
1.551440E+3,	72.248515E-9
1.551444E+3,	70.592439E-9
1.551448E+3,	69.347745E-9
1.551452E+3,	68.480450E-9
1.551456E+3,	67.760647E-9
1.551460E+3,	67.261387E-9
1.551464E+3,	67.190851E-9
1.551468E+3,	67.411925E-9
1.551472E+3,	67.982498E-9
1.551476E+3,	69.037004E-9
1.551480E+3,	70.290589E-9
1.551484E+3,	71.430758E-9
1.551488E+3,	72.911342E-9
1.551492E+3,	74.384957E-9
1.551496E+3,	76.023909E-9
1.551500E+3,	77.267751E-9
1.551504E+3,	78.033987E-9
1.551508E+3,	78.759649E-9
1.551512E+3,	79.346380E-9
1.551516E+3,	79.504500E-9
1.551520E+3,	79.313801E-9
1.551524E+3,	78.768186E-9
1.551528E+3,	77.848919E-9
1.551532E+3,	76.654020E-9
1.551536E+3,	75.450684E-9
1.551540E+3,	73.962003E-9
1.551544E+3,	72.272819E-9
1.551548E+3,	70.230509E-9
1.551552E+3,	68.471955E-9
1.551556E+3,	67.148520E-9
1.551560E+3,	65.884995E-9
1.551564E+3,	64.765360E-9
1.551568E+3,	64.185528E-9
1.551572E+3,	64.055404E-9
1.551576E+3,	64.278088E-9
1.551580E+3,	64.964653E-9
1.551584E+3,	65.948517E-9
1.551588E+3,	67.017273E-9
1.551592E+3,	68.414063E-9
1.551596E+3,	70.063909E-9
1.551600E+3,	72.153540E-9
1.551604E+3,	74.005213E-9
1.551608E+3,	75.378017E-9
1.551612E+3,	76.853651E-9
1.551616E+3,	78.299033E-9
1.551620E+3,	79.363732E-9
1.551624E+3,	79.907372E-9
1.551628E+3,	80.178455E-9
1.551632E+3,	80.077454E-9
1.551636E+3,	79.594157E-9
1.551640E+3,	78.928906E-9
1.551644E+3,	77.956167E-9
1.551648E+3,	76.338449E-9
1.551652E+3,	74.657564E-9
1.551656E+3,	73.308835E-9
1.551660E+3,	71.907704E-9
1.551664E+3,	70.568570E-9
1.551668E+3,	69.123009E-9
1.551672E+3,	67.899355E-9
1.551676E+3,	67.116509E-9
1.551680E+3,	66.591893E-9
1.551684E+3,	66.262336E-9
1.551688E+3,	66.288294E-9
1.551692E+3,	66.596691E-9
1.551696E+3,	67.107831E-9
1.551700E+3,	68.169312E-9
1.551704E+3,	69.222372E-9
1.551708E+3,	70.156627E-9
1.551712E+3,	71.347301E-9
1.551716E+3,	72.483460E-9
1.551720E+3,	73.848949E-9
1.551724E+3,	74.971105E-9
1.551728E+3,	75.743712E-9
1.551732E+3,	76.290191E-9
1.551736E+3,	76.622110E-9
1.551740E+3,	76.638511E-9
1.551744E+3,	76.392891E-9
1.551748E+3,	75.800539E-9
1.551752E+3,	74.732645E-9
1.551756E+3,	73.506727E-9
1.551760E+3,	72.479212E-9
1.551764E+3,	71.181172E-9
1.551768E+3,	69.963761E-9
1.551772E+3,	68.451426E-9
1.551776E+3,	67.054735E-9
1.551780E+3,	66.116750E-9
1.551784E+3,	65.235529E-9
1.551788E+3,	64.470686E-9
1.551792E+3,	64.047907E-9
1.551796E+3,	63.989269E-9
1.551800E+3,	64.104948E-9
1.551804E+3,	64.545440E-9
1.551808E+3,	65.255068E-9
1.551812E+3,	66.137679E-9
1.551816E+3,	67.251189E-9
1.551820E+3,	68.424674E-9
1.551824E+3,	69.779072E-9
1.551828E+3,	71.069760E-9
1.551832E+3,	72.165700E-9
1.551836E+3,	73.309712E-9
1.551840E+3,	74.395786E-9
1.551844E+3,	75.029666E-9
1.551848E+3,	75.310810E-9
1.551852E+3,	75.389290E-9
1.551856E+3,	75.054007E-9
1.551860E+3,	74.407049E-9
1.551864E+3,	73.593713E-9
1.551868E+3,	72.521495E-9
1.551872E+3,	71.050541E-9
1.551876E+3,	69.455260E-9
1.551880E+3,	68.207849E-9
1.551884E+3,	66.736574E-9
1.551888E+3,	65.247114E-9
1.551892E+3,	63.682243E-9
1.551896E+3,	62.635926E-9
1.551900E+3,	62.001169E-9
1.551904E+3,	61.508956E-9
1.551908E+3,	61.262440E-9
1.551912E+3,	61.441000E-9
1.551916E+3,	61.956050E-9
1.551920E+3,	62.710013E-9
1.551924E+3,	63.819523E-9
1.551928E+3,	65.095565E-9
1.551932E+3,	66.181644E-9
1.551936E+3,	67.453459E-9
1.551940E+3,	68.808112E-9
1.551944E+3,	70.268701E-9
1.551948E+3,	71.350922E-9
1.551952E+3,	72.016329E-9
1.551956E+3,	72.527127E-9
1.551960E+3,	72.821910E-9
1.551964E+3,	72.675101E-9
1.551968E+3,	72.240529E-9
1.551972E+3,	71.481418E-9
1.551976E+3,	70.215988E-9
1.551980E+3,	68.810055E-9
1.551984E+3,	67.552778E-9
1.551988E+3,	65.970499E-9
1.551992E+3,	64.371330E-9
1.551996E+3,	62.443991E-9
1.552000E+3,	60.894478E-9
1.552004E+3,	59.831593E-9
1.552008E+3,	58.929106E-9
1.552012E+3,	58.175018E-9
1.552016E+3,	57.767340E-9
1.552020E+3,	57.711480E-9
1.552024E+3,	57.926859E-9
1.552028E+3,	58.503072E-9
1.552032E+3,	59.314053E-9
1.552036E+3,	60.123809E-9
1.552040E+3,	61.194277E-9
1.552044E+3,	62.613686E-9
1.552048E+3,	63.914609E-9
1.552052E+3,	64.872380E-9
1.552056E+3,	65.857952E-9
1.552060E+3,	66.868069E-9
1.552064E+3,	67.502155E-9
1.552068E+3,	67.815595E-9
1.552072E+3,	67.953102E-9
1.552076E+3,	67.779685E-9
1.552080E+3,	67.293941E-9
1.552084E+3,	66.617379E-9
1.552088E+3,	65.724947E-9
1.552092E+3,	64.574939E-9
1.552096E+3,	62.927836E-9
1.552100E+3,	61.259035E-9
1.552104E+3,	59.845802E-9
1.552108E+3,	58.298025E-9
1.552112E+3,	56.734403E-9
1.552116E+3,	55.505722E-9
1.552120E+3,	54.630558E-9
1.552124E+3,	53.871880E-9
1.552128E+3,	53.317555E-9
1.552132E+3,	53.176364E-9
1.552136E+3,	53.311766E-9
1.552140E+3,	53.654076E-9
1.552144E+3,	54.361031E-9
1.552148E+3,	55.327348E-9
1.552152E+3,	56.259366E-9
1.552156E+3,	57.360350E-9
1.552160E+3,	58.813515E-9
1.552164E+3,	60.197602E-9
1.552168E+3,	61.273263E-9
1.552172E+3,	62.488504E-9
1.552176E+3,	63.683733E-9
1.552180E+3,	64.624494E-9
1.552184E+3,	65.190308E-9
1.552188E+3,	65.562286E-9
1.552192E+3,	65.697756E-9
1.552196E+3,	65.616324E-9
1.552200E+3,	65.265865E-9
1.552204E+3,	64.736898E-9
1.552208E+3,	63.952898E-9
1.552212E+3,	62.854727E-9
1.552216E+3,	61.801531E-9
1.552220E+3,	60.920591E-9
1.552224E+3,	59.937375E-9
1.552228E+3,	58.793191E-9
1.552232E+3,	57.912492E-9
1.552236E+3,	57.337533E-9
1.552240E+3,	56.909287E-9
1.552244E+3,	56.738904E-9
1.552248E+3,	56.891959E-9
1.552252E+3,	57.296077E-9
1.552256E+3,	57.992200E-9
1.552260E+3,	59.148684E-9
1.552264E+3,	60.461929E-9
1.552268E+3,	61.613671E-9
1.552272E+3,	63.043804E-9
1.552276E+3,	64.698669E-9
1.552280E+3,	66.176480E-9
1.552284E+3,	67.316208E-9
1.552288E+3,	68.413165E-9
1.552292E+3,	69.342759E-9
1.552296E+3,	69.989968E-9
1.552300E+3,	70.183563E-9
1.552304E+3,	70.049272E-9
1.552308E+3,	69.735704E-9
1.552312E+3,	68.859963E-9
1.552316E+3,	67.780965E-9
1.552320E+3,	66.734396E-9
1.552324E+3,	65.492034E-9
1.552328E+3,	63.789361E-9
1.552332E+3,	62.151101E-9
1.552336E+3,	60.790510E-9
1.552340E+3,	59.295272E-9
1.552344E+3,	57.742976E-9
1.552348E+3,	56.643044E-9
1.552352E+3,	55.983195E-9
1.552356E+3,	55.473021E-9
1.552360E+3,	55.248903E-9
1.552364E+3,	55.345763E-9
1.552368E+3,	55.829868E-9
1.552372E+3,	56.497405E-9
1.552376E+3,	57.544492E-9
1.552380E+3,	58.622641E-9
1.552384E+3,	59.543049E-9
1.552388E+3,	60.706628E-9
1.552392E+3,	61.775590E-9
1.552396E+3,	62.887744E-9
1.552400E+3,	63.733167E-9
1.552404E+3,	64.190207E-9
1.552408E+3,	64.581835E-9
1.552412E+3,	64.689974E-9
1.552416E+3,	64.427892E-9
1.552420E+3,	63.967252E-9
1.552424E+3,	63.201192E-9
1.552428E+3,	62.095168E-9
1.552432E+3,	60.850348E-9
1.552436E+3,	59.700648E-9
1.552440E+3,	58.298132E-9
1.552444E+3,	56.576180E-9
1.552448E+3,	55.066443E-9
1.552452E+3,	54.005281E-9
1.552456E+3,	52.981128E-9
1.552460E+3,	51.907029E-9
1.552464E+3,	51.147178E-9
1.552468E+3,	50.786762E-9
1.552472E+3,	50.570145E-9
1.552476E+3,	50.649385E-9
1.552480E+3,	50.978177E-9
1.552484E+3,	51.438459E-9
1.552488E+3,	52.091880E-9
1.552492E+3,	52.906130E-9
1.552496E+3,	53.959093E-9
1.552500E+3,	55.011449E-9
1.552504E+3,	55.860866E-9
1.552508E+3,	56.766514E-9
1.552512E+3,	57.675332E-9
1.552516E+3,	58.378914E-9
1.552520E+3,	58.726381E-9
1.552524E+3,	58.958578E-9
1.552528E+3,	58.974952E-9
1.552532E+3,	58.769793E-9
1.552536E+3,	58.349334E-9
1.552540E+3,	57.724681E-9
1.552544E+3,	56.879170E-9
1.552548E+3,	55.989080E-9
1.552552E+3,	55.159279E-9
1.552556E+3,	54.176553E-9
1.552560E+3,	53.036914E-9
1.552564E+3,	52.055160E-9
1.552568E+3,	51.305446E-9
1.552572E+3,	50.553492E-9
1.552576E+3,	49.825227E-9
1.552580E+3,	49.395172E-9
1.552584E+3,	49.232056E-9
1.552588E+3,	49.253862E-9
1.552592E+3,	49.530110E-9
1.552596E+3,	50.067536E-9
1.552600E+3,	50.756052E-9
1.552604E+3,	51.538626E-9
1.552608E+3,	52.489096E-9
1.552612E+3,	53.646526E-9
1.552616E+3,	54.675504E-9
1.552620E+3,	55.432370E-9
1.552624E+3,	56.172822E-9
1.552628E+3,	56.802728E-9
1.552632E+3,	57.183124E-9
1.552636E+3,	57.283724E-9
1.552640E+3,	57.247049E-9
1.552644E+3,	56.930174E-9
1.552648E+3,	56.433224E-9
1.552652E+3,	55.936814E-9
1.552656E+3,	55.132140E-9
1.552660E+3,	54.024274E-9
1.552664E+3,	52.929610E-9
1.552668E+3,	52.131890E-9
1.552672E+3,	51.195189E-9
1.552676E+3,	50.089806E-9
1.552680E+3,	49.166533E-9
1.552684E+3,	48.596437E-9
1.552688E+3,	48.138497E-9
1.552692E+3,	47.908209E-9
1.552696E+3,	47.851610E-9
1.552700E+3,	48.104131E-9
1.552704E+3,	48.465030E-9
1.552708E+3,	49.076747E-9
1.552712E+3,	50.067967E-9
1.552716E+3,	51.150300E-9
1.552720E+3,	52.138755E-9
1.552724E+3,	53.149857E-9
1.552728E+3,	54.399230E-9
1.552732E+3,	55.527783E-9
1.552736E+3,	56.394515E-9
1.552740E+3,	57.144637E-9
1.552744E+3,	57.804345E-9
1.552748E+3,	58.140090E-9
1.552752E+3,	58.222140E-9
1.552756E+3,	58.110478E-9
1.552760E+3,	57.655902E-9
1.552764E+3,	57.044240E-9
1.552768E+3,	56.410381E-9
1.552772E+3,	55.564141E-9
1.552776E+3,	54.542493E-9
1.552780E+3,	53.470862E-9
1.552784E+3,	52.628804E-9
1.552788E+3,	51.742160E-9
1.552792E+3,	50.955172E-9
1.552796E+3,	50.129071E-9
1.552800E+3,	49.526935E-9
1.552804E+3,	49.219601E-9
1.552808E+3,	48.936318E-9
1.552812E+3,	48.731907E-9
1.552816E+3,	48.718746E-9
1.552820E+3,	48.886231E-9
1.552824E+3,	49.113199E-9
1.552828E+3,	49.520888E-9
1.552832E+3,	49.869283E-9
1.552836E+3,	50.233424E-9
1.552840E+3,	50.625758E-9
1.552844E+3,	51.050329E-9
1.552848E+3,	51.278794E-9
1.552852E+3,	51.380405E-9
1.552856E+3,	51.352248E-9
1.552860E+3,	51.164537E-9
1.552864E+3,	50.859848E-9
1.552868E+3,	50.442194E-9
1.552872E+3,	49.835215E-9
1.552876E+3,	48.953293E-9
1.552880E+3,	48.107694E-9
1.552884E+3,	47.320130E-9
1.552888E+3,	46.422648E-9
1.552892E+3,	45.512228E-9
1.552896E+3,	44.424672E-9
1.552900E+3,	43.421726E-9
1.552904E+3,	42.721208E-9
1.552908E+3,	41.964522E-9
1.552912E+3,	41.164870E-9
1.552916E+3,	40.513838E-9
1.552920E+3,	40.084857E-9
1.552924E+3,	39.720439E-9
1.552928E+3,	39.396061E-9
1.552932E+3,	39.222900E-9
1.552936E+3,	39.134598E-9
1.552940E+3,	39.154048E-9
1.552944E+3,	39.294696E-9
1.552948E+3,	39.427704E-9
1.552952E+3,	39.580637E-9
1.552956E+3,	39.730827E-9
1.552960E+3,	39.874467E-9
1.552964E+3,	39.944591E-9
1.552968E+3,	39.963667E-9
1.552972E+3,	39.819660E-9
1.552976E+3,	39.582317E-9
1.552980E+3,	39.240548E-9
1.552984E+3,	38.842297E-9
1.552988E+3,	38.366515E-9
1.552992E+3,	37.583144E-9
1.552996E+3,	36.794863E-9
1.553000E+3,	36.087993E-9
1.553004E+3,	35.336111E-9
1.553008E+3,	34.414240E-9
1.553012E+3,	33.566488E-9
1.553016E+3,	32.881561E-9
1.553020E+3,	32.231622E-9
1.553024E+3,	31.449087E-9
1.553028E+3,	30.860596E-9
1.553032E+3,	30.480403E-9
1.553036E+3,	30.156451E-9
1.553040E+3,	29.897473E-9
1.553044E+3,	29.717333E-9
1.553048E+3,	29.697526E-9
1.553052E+3,	29.733334E-9
1.553056E+3,	29.801990E-9
1.553060E+3,	29.935208E-9
1.553064E+3,	30.066936E-9
1.553068E+3,	30.201595E-9
1.553072E+3,	30.359661E-9
1.553076E+3,	30.408127E-9
1.553080E+3,	30.430781E-9
1.553084E+3,	30.366296E-9
1.553088E+3,	30.202369E-9
1.553092E+3,	29.957969E-9
1.553096E+3,	29.654408E-9
1.553100E+3,	29.226775E-9
1.553104E+3,	28.656317E-9
1.553108E+3,	28.057870E-9
1.553112E+3,	27.529426E-9
1.553116E+3,	26.925121E-9
1.553120E+3,	26.205488E-9
1.553124E+3,	25.574718E-9
1.553128E+3,	25.132606E-9
1.553132E+3,	24.627954E-9
1.553136E+3,	24.143651E-9
1.553140E+3,	23.762857E-9
1.553144E+3,	23.594358E-9
1.553148E+3,	23.459046E-9
1.553152E+3,	23.388008E-9
1.553156E+3,	23.425152E-9
1.553160E+3,	23.490032E-9
1.553164E+3,	23.597471E-9
1.553168E+3,	23.777205E-9
1.553172E+3,	23.934757E-9
1.553176E+3,	24.064599E-9
1.553180E+3,	24.127921E-9
1.553184E+3,	24.245555E-9
1.553188E+3,	24.251520E-9
1.553192E+3,	24.186633E-9
1.553196E+3,	24.074963E-9
1.553200E+3,	23.882182E-9
1.553204E+3,	23.592905E-9
1.553208E+3,	23.312597E-9
1.553212E+3,	22.936477E-9
1.553216E+3,	22.455624E-9
1.553220E+3,	21.939134E-9
1.553224E+3,	21.509798E-9
1.553228E+3,	21.022740E-9
1.553232E+3,	20.406612E-9
1.553236E+3,	19.868534E-9
1.553240E+3,	19.391123E-9
1.553244E+3,	18.968260E-9
1.553248E+3,	18.554303E-9
1.553252E+3,	18.246945E-9
1.553256E+3,	17.988505E-9
1.553260E+3,	17.758867E-9
1.553264E+3,	17.583681E-9
1.553268E+3,	17.430075E-9
1.553272E+3,	17.360384E-9
1.553276E+3,	17.278982E-9
1.553280E+3,	17.244887E-9
1.553284E+3,	17.219355E-9
1.553288E+3,	17.203404E-9
1.553292E+3,	17.185837E-9
1.553296E+3,	17.065383E-9
1.553300E+3,	16.961786E-9
1.553304E+3,	16.821512E-9
1.553308E+3,	16.685815E-9
1.553312E+3,	16.435644E-9
1.553316E+3,	16.171185E-9
1.553320E+3,	15.927319E-9
1.553324E+3,	15.603551E-9
1.553328E+3,	15.174692E-9
1.553332E+3,	14.793844E-9
1.553336E+3,	14.451590E-9
1.553340E+3,	14.061844E-9
1.553344E+3,	13.592393E-9
1.553348E+3,	13.200569E-9
1.553352E+3,	12.898021E-9
1.553356E+3,	12.600796E-9
1.553360E+3,	12.224676E-9
1.553364E+3,	11.928865E-9
1.553368E+3,	11.723803E-9
1.553372E+3,	11.523908E-9
1.553376E+3,	11.321198E-9
1.553380E+3,	11.176085E-9
1.553384E+3,	11.055677E-9
1.553388E+3,	10.994108E-9
1.553392E+3,	10.894016E-9
1.553396E+3,	10.798827E-9
1.553400E+3,	10.731373E-9
1.553404E+3,	10.656959E-9
1.553408E+3,	10.536532E-9
1.553412E+3,	10.436656E-9
1.553416E+3,	10.294831E-9
1.553420E+3,	10.111448E-9
1.553424E+3,	9.904095E-9
1.553428E+3,	9.682219E-9
1.553432E+3,	9.463261E-9
1.553436E+3,	9.222653E-9
1.553440E+3,	8.912855E-9
1.553444E+3,	8.653900E-9
1.553448E+3,	8.402000E-9
1.553452E+3,	8.111328E-9
1.553456E+3,	7.781841E-9
1.553460E+3,	7.481667E-9
1.553464E+3,	7.284624E-9
1.553468E+3,	7.033096E-9
1.553472E+3,	6.842222E-9
1.553476E+3,	6.666983E-9
1.553480E+3,	6.520972E-9
1.553484E+3,	6.335450E-9
1.553488E+3,	6.232279E-9
1.553492E+3,	6.158433E-9
1.553496E+3,	6.079863E-9
1.553500E+3,	6.011188E-9
1.553504E+3,	5.946494E-9
1.553508E+3,	5.889330E-9
1.553512E+3,	5.821953E-9
1.553516E+3,	5.738439E-9
1.553520E+3,	5.644219E-9
1.553524E+3,	5.577367E-9
1.553528E+3,	5.439242E-9
1.553532E+3,	5.292971E-9
1.553536E+3,	5.173942E-9
1.553540E+3,	5.059975E-9
1.553544E+3,	4.902069E-9
1.553548E+3,	4.703128E-9
1.553552E+3,	4.540662E-9
1.553556E+3,	4.403108E-9
1.553560E+3,	4.226919E-9
1.553564E+3,	4.049722E-9
1.553568E+3,	3.866849E-9
1.553572E+3,	3.768168E-9
1.553576E+3,	3.660312E-9
1.553580E+3,	3.522059E-9
1.553584E+3,	3.441322E-9
1.553588E+3,	3.363769E-9
1.553592E+3,	3.280378E-9
1.553596E+3,	3.226353E-9
1.553600E+3,	3.178991E-9
1.553604E+3,	3.149502E-9
1.553608E+3,	3.118998E-9
1.553612E+3,	3.081655E-9
1.553616E+3,	3.064268E-9
1.553620E+3,	3.025283E-9
1.553624E+3,	2.994835E-9
1.553628E+3,	2.972597E-9
1.553632E+3,	2.930480E-9
1.553636E+3,	2.897437E-9
1.553640E+3,	2.833468E-9
1.553644E+3,	2.781800E-9
1.553648E+3,	2.728538E-9
1.553652E+3,	2.647759E-9
1.553656E+3,	2.593884E-9
1.553660E+3,	2.512756E-9
1.553664E+3,	2.427935E-9
1.553668E+3,	2.358257E-9
1.553672E+3,	2.281999E-9
1.553676E+3,	2.200206E-9
1.553680E+3,	2.109862E-9
1.553684E+3,	2.073273E-9
1.553688E+3,	2.004809E-9
1.553692E+3,	1.930849E-9
1.553696E+3,	1.885146E-9
1.553700E+3,	1.826509E-9
1.553704E+3,	1.786344E-9
1.553708E+3,	1.730419E-9
1.553712E+3,	1.713600E-9
1.553716E+3,	1.685055E-9
1.553720E+3,	1.671887E-9
1.553724E+3,	1.643465E-9
1.553728E+3,	1.617685E-9
1.553732E+3,	1.606037E-9
1.553736E+3,	1.577297E-9
1.553740E+3,	1.576777E-9
1.553744E+3,	1.569119E-9
1.553748E+3,	1.553427E-9
1.553752E+3,	1.542075E-9
1.553756E+3,	1.489328E-9
1.553760E+3,	1.472910E-9
1.553764E+3,	1.463651E-9
1.553768E+3,	1.414929E-9
1.553772E+3,	1.373225E-9
1.553776E+3,	1.353333E-9
1.553780E+3,	1.275525E-9
1.553784E+3,	1.256395E-9
1.553788E+3,	1.209137E-9
1.553792E+3,	1.162389E-9
1.553796E+3,	1.130714E-9
1.553800E+3,	1.112301E-9
1.553804E+3,	1.069554E-9
1.553808E+3,	1.051048E-9
1.553812E+3,	987.905677E-12
1.553816E+3,	975.366061E-12
1.553820E+3,	941.823737E-12
1.553824E+3,	926.044481E-12
1.553828E+3,	915.779289E-12
1.553832E+3,	865.305670E-12
1.553836E+3,	878.234388E-12
1.553840E+3,	863.318893E-12
1.553844E+3,	855.081300E-12
1.553848E+3,	843.097292E-12
1.553852E+3,	825.229740E-12
1.553856E+3,	790.531592E-12
1.553860E+3,	799.865954E-12
1.553864E+3,	796.050325E-12
1.553868E+3,	777.284941E-12
1.553872E+3,	789.408576E-12
1.553876E+3,	747.285985E-12
1.553880E+3,	721.237432E-12
1.553884E+3,	702.960481E-12
1.553888E+3,	678.687558E-12
1.553892E+3,	687.908012E-12
1.553896E+3,	642.072945E-12
1.553900E+3,	637.833671E-12
1.553904E+3,	614.448627E-12
1.553908E+3,	580.482818E-12
1.553912E+3,	570.986010E-12
1.553916E+3,	555.795839E-12
1.553920E+3,	532.772850E-12
1.553924E+3,	517.832905E-12
1.553928E+3,	509.125399E-12
1.553932E+3,	484.197155E-12
1.553936E+3,	473.052922E-12
1.553940E+3,	452.174372E-12
1.553944E+3,	472.090449E-12
1.553948E+3,	464.776829E-12
1.553952E+3,	437.933556E-12
1.553956E+3,	442.234657E-12
1.553960E+3,	407.507617E-12
1.553964E+3,	410.494362E-12
1.553968E+3,	403.852142E-12
1.553972E+3,	373.151205E-12
1.553976E+3,	395.687070E-12
1.553980E+3,	383.253533E-12
1.553984E+3,	378.636469E-12
1.553988E+3,	352.674519E-12
1.553992E+3,	334.508780E-12
1.553996E+3,	319.655282E-12
1.554000E+3,	325.563693E-12
1.554004E+3,	325.823099E-12
1.554008E+3,	317.917215E-12
1.554012E+3,	298.118713E-12
1.554016E+3,	297.828436E-12
1.554020E+3,	280.468289E-12
1.554024E+3,	295.830627E-12
1.554028E+3,	279.233880E-12
1.554032E+3,	276.538838E-12
1.554036E+3,	272.034801E-12
1.554040E+3,	251.700574E-12
1.554044E+3,	247.078531E-12
1.554048E+3,	248.255691E-12
1.554052E+3,	268.426615E-12
1.554056E+3,	241.119007E-12
1.554060E+3,	231.726201E-12
1.554064E+3,	212.344635E-12
1.554068E+3,	217.683985E-12
1.554072E+3,	210.509219E-12
1.554076E+3,	195.825943E-12
1.554080E+3,	207.172102E-12
1.554084E+3,	197.298881E-12
1.554088E+3,	195.242717E-12
1.554092E+3,	174.508609E-12
1.554096E+3,	184.410983E-12
1.554100E+3,	178.217349E-12
1.554104E+3,	178.383162E-12
1.554108E+3,	169.566187E-12
1.554112E+3,	161.806122E-12
1.554116E+3,	154.908570E-12
1.554120E+3,	134.224775E-12
1.554124E+3,	157.365881E-12
1.554128E+3,	160.378093E-12
1.554132E+3,	144.983200E-12
1.554136E+3,	134.660379E-12
1.554140E+3,	136.554988E-12
1.554144E+3,	137.341409E-12
1.554148E+3,	134.210084E-12
1.554152E+3,	122.489332E-12
1.554156E+3,	133.242301E-12
1.554160E+3,	141.663136E-12
1.554164E+3,	117.871308E-12
1.554168E+3,	122.306615E-12
1.554172E+3,	128.486497E-12
1.554176E+3,	101.826808E-12
1.554180E+3,	100.506318E-12
1.554184E+3,	105.222863E-12
1.554188E+3,	107.967619E-12
1.554192E+3,	110.490747E-12
1.554196E+3,	114.374739E-12
1.554200E+3,	81.807206E-12
1.554204E+3,	87.190579E-12
1.554208E+3,	104.949230E-12
1.554212E+3,	95.145884E-12
1.554216E+3,	121.420628E-12
1.554220E+3,	85.308190E-12
1.554224E+3,	79.563812E-12
1.554228E+3,	79.902906E-12
1.554232E+3,	89.721676E-12
1.554236E+3,	70.489640E-12
1.554240E+3,	83.906817E-12
1.554244E+3,	75.075229E-12
1.554248E+3,	80.075852E-12
1.554252E+3,	53.838229E-12
1.554256E+3,	106.606734E-12
1.554260E+3,	65.662582E-12
1.554264E+3,	53.597914E-12
1.554268E+3,	65.884214E-12
1.554272E+3,	75.016153E-12
1.554276E+3,	54.447455E-12
1.554280E+3,	66.883341E-12
1.554284E+3,	72.081586E-12
1.554288E+3,	50.546033E-12
1.554292E+3,	70.002294E-12
1.554296E+3,	54.923493E-12
1.554300E+3,	51.752762E-12
1.554304E+3,	41.393418E-12
1.554308E+3,	54.695881E-12
1.554312E+3,	40.430964E-12
1.554316E+3,	62.980605E-12
1.554320E+3,	27.640838E-12
1.554324E+3,	29.251722E-12
1.554328E+3,	56.880180E-12
1.554332E+3,	56.388476E-12
1.554336E+3,	62.077459E-12
1.554340E+3,	40.626756E-12
1.554344E+3,	38.840379E-12
1.554348E+3,	43.798411E-12
1.554352E+3,	44.385886E-12
1.554356E+3,	47.746116E-12
1.554360E+3,	22.560197E-12
1.554364E+3,	38.867893E-12
1.554368E+3,	30.348035E-12
1.554372E+3,	37.986130E-12
1.554376E+3,	56.122853E-12
1.554380E+3,	49.083414E-12
1.554384E+3,	40.574488E-12
1.554388E+3,	40.238436E-12
1.554392E+3,	31.427086E-12
1.554396E+3,	33.675007E-12
1.554400E+3,	19.627893E-12
1.554404E+3,	14.035182E-12
1.554408E+3,	16.323201E-12
1.554412E+3,	11.511509E-12
1.554416E+3,	25.542236E-12
1.554420E+3,	27.927583E-12
1.554424E+3,	23.884433E-12
1.554428E+3,	18.775490E-12
1.554432E+3,	26.996545E-12
1.554436E+3,	11.309756E-12
1.554440E+3,	33.478364E-12
1.554444E+3,	17.534807E-12
1.554448E+3,	32.848260E-12
1.554452E+3,	36.596461E-12
1.554456E+3,	28.944305E-12
1.554460E+3,	16.364124E-12
1.554464E+3,	21.009685E-12
1.554468E+3,	39.834468E-12
1.554472E+3,	15.419981E-12
1.554476E+3,	7.056048E-12
1.554480E+3,	18.823499E-12
1.554484E+3,	11.693873E-12
1.554488E+3,	8.803180E-12
1.554492E+3,	21.132601E-12
1.554496E+3,	31.884706E-12
1.554500E+3,	17.799056E-12
