YOKOGAWA AQ6370D - S/N: 91S206859
#Date: 20/10/2023 Time: 12:59:59,	
A_WL(nm),	A_I(mW)
1.547500E+3,	14.949297E-12
1.547504E+3,	0.000000E+0
1.547508E+3,	0.000000E+0
1.547512E+3,	4.389654E-12
1.547516E+3,	2.624644E-12
1.547520E+3,	5.980324E-12
1.547524E+3,	0.000000E+0
1.547528E+3,	8.994677E-12
1.547532E+3,	74.712631E-15
1.547536E+3,	7.487754E-12
1.547540E+3,	0.000000E+0
1.547544E+3,	0.000000E+0
1.547548E+3,	13.574318E-12
1.547552E+3,	26.073145E-12
1.547556E+3,	1.098233E-12
1.547560E+3,	0.000000E+0
1.547564E+3,	15.068230E-12
1.547568E+3,	0.000000E+0
1.547572E+3,	0.000000E+0
1.547576E+3,	0.000000E+0
1.547580E+3,	0.000000E+0
1.547584E+3,	0.000000E+0
1.547588E+3,	1.615762E-12
1.547592E+3,	0.000000E+0
1.547596E+3,	17.482721E-12
1.547600E+3,	0.000000E+0
1.547604E+3,	3.864773E-12
1.547608E+3,	0.000000E+0
1.547612E+3,	6.639304E-12
1.547616E+3,	15.605061E-12
1.547620E+3,	0.000000E+0
1.547624E+3,	219.802135E-15
1.547628E+3,	22.682257E-12
1.547632E+3,	0.000000E+0
1.547636E+3,	10.515074E-12
1.547640E+3,	8.572408E-12
1.547644E+3,	0.000000E+0
1.547648E+3,	0.000000E+0
1.547652E+3,	0.000000E+0
1.547656E+3,	0.000000E+0
1.547660E+3,	1.446246E-12
1.547664E+3,	15.107967E-12
1.547668E+3,	2.559113E-12
1.547672E+3,	0.000000E+0
1.547676E+3,	0.000000E+0
1.547680E+3,	0.000000E+0
1.547684E+3,	2.190727E-15
1.547688E+3,	3.357016E-12
1.547692E+3,	2.015087E-12
1.547696E+3,	6.836646E-12
1.547700E+3,	0.000000E+0
1.547704E+3,	6.621169E-12
1.547708E+3,	7.382804E-12
1.547712E+3,	5.797036E-12
1.547716E+3,	0.000000E+0
1.547720E+3,	6.985461E-12
1.547724E+3,	0.000000E+0
1.547728E+3,	0.000000E+0
1.547732E+3,	0.000000E+0
1.547736E+3,	1.793622E-12
1.547740E+3,	9.992611E-12
1.547744E+3,	26.719997E-12
1.547748E+3,	0.000000E+0
1.547752E+3,	0.000000E+0
1.547756E+3,	0.000000E+0
1.547760E+3,	0.000000E+0
1.547764E+3,	0.000000E+0
1.547768E+3,	0.000000E+0
1.547772E+3,	0.000000E+0
1.547776E+3,	0.000000E+0
1.547780E+3,	0.000000E+0
1.547784E+3,	0.000000E+0
1.547788E+3,	9.379724E-12
1.547792E+3,	0.000000E+0
1.547796E+3,	1.375761E-12
1.547800E+3,	0.000000E+0
1.547804E+3,	6.005989E-12
1.547808E+3,	7.511473E-12
1.547812E+3,	0.000000E+0
1.547816E+3,	0.000000E+0
1.547820E+3,	10.838048E-12
1.547824E+3,	6.642362E-12
1.547828E+3,	0.000000E+0
1.547832E+3,	18.054017E-12
1.547836E+3,	6.647697E-12
1.547840E+3,	0.000000E+0
1.547844E+3,	14.461795E-12
1.547848E+3,	11.069140E-12
1.547852E+3,	14.135230E-12
1.547856E+3,	8.671123E-12
1.547860E+3,	10.224081E-12
1.547864E+3,	13.046677E-12
1.547868E+3,	0.000000E+0
1.547872E+3,	0.000000E+0
1.547876E+3,	2.165424E-12
1.547880E+3,	0.000000E+0
1.547884E+3,	0.000000E+0
1.547888E+3,	7.313636E-12
1.547892E+3,	3.104567E-12
1.547896E+3,	0.000000E+0
1.547900E+3,	4.156833E-12
1.547904E+3,	18.144732E-12
1.547908E+3,	0.000000E+0
1.547912E+3,	38.478548E-15
1.547916E+3,	1.089678E-12
1.547920E+3,	0.000000E+0
1.547924E+3,	18.943002E-12
1.547928E+3,	15.151208E-12
1.547932E+3,	7.658344E-12
1.547936E+3,	1.256452E-12
1.547940E+3,	12.404041E-12
1.547944E+3,	5.863584E-12
1.547948E+3,	0.000000E+0
1.547952E+3,	13.303735E-12
1.547956E+3,	0.000000E+0
1.547960E+3,	0.000000E+0
1.547964E+3,	19.004710E-12
1.547968E+3,	10.146208E-12
1.547972E+3,	5.446209E-12
1.547976E+3,	21.581938E-12
1.547980E+3,	20.751147E-12
1.547984E+3,	0.000000E+0
1.547988E+3,	11.162423E-12
1.547992E+3,	6.952387E-12
1.547996E+3,	1.602306E-12
1.548000E+3,	0.000000E+0
1.548004E+3,	9.238872E-12
1.548008E+3,	0.000000E+0
1.548012E+3,	1.453931E-12
1.548016E+3,	15.055693E-12
1.548020E+3,	10.733193E-12
1.548024E+3,	0.000000E+0
1.548028E+3,	0.000000E+0
1.548032E+3,	0.000000E+0
1.548036E+3,	13.697577E-12
1.548040E+3,	3.625686E-12
1.548044E+3,	8.496813E-12
1.548048E+3,	0.000000E+0
1.548052E+3,	14.630164E-12
1.548056E+3,	5.465613E-12
1.548060E+3,	13.651667E-12
1.548064E+3,	28.335738E-12
1.548068E+3,	0.000000E+0
1.548072E+3,	654.710062E-15
1.548076E+3,	19.174907E-12
1.548080E+3,	17.957564E-12
1.548084E+3,	2.598370E-12
1.548088E+3,	0.000000E+0
1.548092E+3,	6.947045E-12
1.548096E+3,	0.000000E+0
1.548100E+3,	1.763237E-12
1.548104E+3,	8.262753E-12
1.548108E+3,	0.000000E+0
1.548112E+3,	0.000000E+0
1.548116E+3,	0.000000E+0
1.548120E+3,	3.543251E-12
1.548124E+3,	4.850716E-12
1.548128E+3,	0.000000E+0
1.548132E+3,	0.000000E+0
1.548136E+3,	27.695058E-12
1.548140E+3,	12.296011E-12
1.548144E+3,	3.924594E-12
1.548148E+3,	0.000000E+0
1.548152E+3,	0.000000E+0
1.548156E+3,	1.382299E-12
1.548160E+3,	0.000000E+0
1.548164E+3,	0.000000E+0
1.548168E+3,	17.459649E-12
1.548172E+3,	1.539997E-12
1.548176E+3,	16.058673E-12
1.548180E+3,	0.000000E+0
1.548184E+3,	0.000000E+0
1.548188E+3,	0.000000E+0
1.548192E+3,	5.119505E-12
1.548196E+3,	10.391681E-12
1.548200E+3,	15.059686E-12
1.548204E+3,	4.107132E-12
1.548208E+3,	10.027343E-12
1.548212E+3,	0.000000E+0
1.548216E+3,	9.501673E-12
1.548220E+3,	0.000000E+0
1.548224E+3,	910.367323E-15
1.548228E+3,	0.000000E+0
1.548232E+3,	0.000000E+0
1.548236E+3,	1.818959E-12
1.548240E+3,	25.600369E-12
1.548244E+3,	0.000000E+0
1.548248E+3,	5.946834E-12
1.548252E+3,	8.831660E-12
1.548256E+3,	1.909797E-12
1.548260E+3,	7.123903E-12
1.548264E+3,	0.000000E+0
1.548268E+3,	485.072722E-15
1.548272E+3,	0.000000E+0
1.548276E+3,	0.000000E+0
1.548280E+3,	0.000000E+0
1.548284E+3,	28.118251E-12
1.548288E+3,	11.388266E-12
1.548292E+3,	23.625540E-12
1.548296E+3,	0.000000E+0
1.548300E+3,	31.538998E-12
1.548304E+3,	23.091953E-12
1.548308E+3,	0.000000E+0
1.548312E+3,	18.864528E-12
1.548316E+3,	40.416287E-12
1.548320E+3,	23.934464E-12
1.548324E+3,	25.920150E-12
1.548328E+3,	29.000759E-12
1.548332E+3,	24.212614E-12
1.548336E+3,	6.618257E-12
1.548340E+3,	23.621361E-12
1.548344E+3,	0.000000E+0
1.548348E+3,	27.102595E-12
1.548352E+3,	18.432648E-12
1.548356E+3,	30.228863E-12
1.548360E+3,	25.186635E-12
1.548364E+3,	45.554098E-12
1.548368E+3,	34.191230E-12
1.548372E+3,	47.986807E-12
1.548376E+3,	40.298364E-12
1.548380E+3,	44.341992E-12
1.548384E+3,	50.639721E-12
1.548388E+3,	64.087310E-12
1.548392E+3,	61.467910E-12
1.548396E+3,	72.286563E-12
1.548400E+3,	74.178957E-12
1.548404E+3,	77.489737E-12
1.548408E+3,	86.467094E-12
1.548412E+3,	84.376382E-12
1.548416E+3,	89.721349E-12
1.548420E+3,	86.765473E-12
1.548424E+3,	99.990285E-12
1.548428E+3,	102.374755E-12
1.548432E+3,	111.992065E-12
1.548436E+3,	92.073898E-12
1.548440E+3,	90.182268E-12
1.548444E+3,	102.689275E-12
1.548448E+3,	119.273414E-12
1.548452E+3,	107.162646E-12
1.548456E+3,	113.676913E-12
1.548460E+3,	120.157731E-12
1.548464E+3,	140.749122E-12
1.548468E+3,	125.128789E-12
1.548472E+3,	153.113785E-12
1.548476E+3,	181.093617E-12
1.548480E+3,	212.035441E-12
1.548484E+3,	207.794874E-12
1.548488E+3,	252.786687E-12
1.548492E+3,	272.684882E-12
1.548496E+3,	312.330965E-12
1.548500E+3,	353.845886E-12
1.548504E+3,	341.946863E-12
1.548508E+3,	391.638061E-12
1.548512E+3,	382.489184E-12
1.548516E+3,	409.166402E-12
1.548520E+3,	423.478494E-12
1.548524E+3,	392.711156E-12
1.548528E+3,	397.094612E-12
1.548532E+3,	386.836271E-12
1.548536E+3,	368.428328E-12
1.548540E+3,	371.003631E-12
1.548544E+3,	349.157228E-12
1.548548E+3,	328.999656E-12
1.548552E+3,	334.289490E-12
1.548556E+3,	332.642976E-12
1.548560E+3,	328.017257E-12
1.548564E+3,	351.185330E-12
1.548568E+3,	409.811768E-12
1.548572E+3,	461.080608E-12
1.548576E+3,	528.708585E-12
1.548580E+3,	596.487463E-12
1.548584E+3,	674.188556E-12
1.548588E+3,	744.394413E-12
1.548592E+3,	881.728202E-12
1.548596E+3,	977.603287E-12
1.548600E+3,	1.092600E-9
1.548604E+3,	1.183967E-9
1.548608E+3,	1.292166E-9
1.548612E+3,	1.387750E-9
1.548616E+3,	1.454899E-9
1.548620E+3,	1.502140E-9
1.548624E+3,	1.518117E-9
1.548628E+3,	1.559843E-9
1.548632E+3,	1.535839E-9
1.548636E+3,	1.481930E-9
1.548640E+3,	1.428825E-9
1.548644E+3,	1.355667E-9
1.548648E+3,	1.233881E-9
1.548652E+3,	1.152457E-9
1.548656E+3,	1.055176E-9
1.548660E+3,	962.568221E-12
1.548664E+3,	906.927441E-12
1.548668E+3,	866.787353E-12
1.548672E+3,	868.104476E-12
1.548676E+3,	893.440442E-12
1.548680E+3,	952.685021E-12
1.548684E+3,	1.079692E-9
1.548688E+3,	1.259745E-9
1.548692E+3,	1.494296E-9
1.548696E+3,	1.712309E-9
1.548700E+3,	1.968797E-9
1.548704E+3,	2.283148E-9
1.548708E+3,	2.648115E-9
1.548712E+3,	3.030278E-9
1.548716E+3,	3.279616E-9
1.548720E+3,	3.569699E-9
1.548724E+3,	3.829180E-9
1.548728E+3,	4.085182E-9
1.548732E+3,	4.277315E-9
1.548736E+3,	4.387676E-9
1.548740E+3,	4.399970E-9
1.548744E+3,	4.378758E-9
1.548748E+3,	4.266901E-9
1.548752E+3,	4.071355E-9
1.548756E+3,	3.824780E-9
1.548760E+3,	3.529641E-9
1.548764E+3,	3.129134E-9
1.548768E+3,	2.740146E-9
1.548772E+3,	2.487311E-9
1.548776E+3,	2.202205E-9
1.548780E+3,	2.008528E-9
1.548784E+3,	1.924004E-9
1.548788E+3,	1.973875E-9
1.548792E+3,	2.100632E-9
1.548796E+3,	2.366836E-9
1.548800E+3,	2.750802E-9
1.548804E+3,	3.383557E-9
1.548808E+3,	4.110577E-9
1.548812E+3,	4.819273E-9
1.548816E+3,	5.652684E-9
1.548820E+3,	6.532980E-9
1.548824E+3,	7.515014E-9
1.548828E+3,	8.475989E-9
1.548832E+3,	9.259099E-9
1.548836E+3,	10.034472E-9
1.548840E+3,	10.764071E-9
1.548844E+3,	11.242247E-9
1.548848E+3,	11.478800E-9
1.548852E+3,	11.550162E-9
1.548856E+3,	11.402903E-9
1.548860E+3,	10.957598E-9
1.548864E+3,	10.310145E-9
1.548868E+3,	9.607443E-9
1.548872E+3,	8.719065E-9
1.548876E+3,	7.740237E-9
1.548880E+3,	6.649281E-9
1.548884E+3,	5.674227E-9
1.548888E+3,	4.946486E-9
1.548892E+3,	4.315438E-9
1.548896E+3,	3.913842E-9
1.548900E+3,	3.828689E-9
1.548904E+3,	4.121419E-9
1.548908E+3,	4.687166E-9
1.548912E+3,	5.596714E-9
1.548916E+3,	6.860162E-9
1.548920E+3,	8.842724E-9
1.548924E+3,	10.932090E-9
1.548928E+3,	12.754150E-9
1.548932E+3,	14.776582E-9
1.548936E+3,	17.277174E-9
1.548940E+3,	19.437113E-9
1.548944E+3,	20.991355E-9
1.548948E+3,	22.547783E-9
1.548952E+3,	23.844718E-9
1.548956E+3,	24.787356E-9
1.548960E+3,	25.101696E-9
1.548964E+3,	24.986075E-9
1.548968E+3,	24.424592E-9
1.548972E+3,	23.419844E-9
1.548976E+3,	21.613990E-9
1.548980E+3,	19.659018E-9
1.548984E+3,	17.902948E-9
1.548988E+3,	15.791316E-9
1.548992E+3,	13.630618E-9
1.548996E+3,	11.279909E-9
1.549000E+3,	9.384615E-9
1.549004E+3,	8.175308E-9
1.549008E+3,	7.333271E-9
1.549012E+3,	7.089828E-9
1.549016E+3,	7.567433E-9
1.549020E+3,	8.621743E-9
1.549024E+3,	10.394218E-9
1.549028E+3,	12.824576E-9
1.549032E+3,	16.296336E-9
1.549036E+3,	19.758392E-9
1.549040E+3,	22.784985E-9
1.549044E+3,	26.494996E-9
1.549048E+3,	30.266117E-9
1.549052E+3,	34.481084E-9
1.549056E+3,	37.995090E-9
1.549060E+3,	40.388681E-9
1.549064E+3,	42.405388E-9
1.549068E+3,	44.022483E-9
1.549072E+3,	44.579932E-9
1.549076E+3,	44.220967E-9
1.549080E+3,	42.989318E-9
1.549084E+3,	40.896131E-9
1.549088E+3,	37.650710E-9
1.549092E+3,	34.129283E-9
1.549096E+3,	30.884135E-9
1.549100E+3,	27.037187E-9
1.549104E+3,	23.175027E-9
1.549108E+3,	18.886288E-9
1.549112E+3,	15.607464E-9
1.549116E+3,	13.661911E-9
1.549120E+3,	12.076662E-9
1.549124E+3,	11.164899E-9
1.549128E+3,	11.452665E-9
1.549132E+3,	12.661336E-9
1.549136E+3,	14.878672E-9
1.549140E+3,	18.049137E-9
1.549144E+3,	22.999625E-9
1.549148E+3,	28.043523E-9
1.549152E+3,	32.766612E-9
1.549156E+3,	38.446027E-9
1.549160E+3,	44.388206E-9
1.549164E+3,	51.352266E-9
1.549168E+3,	57.025593E-9
1.549172E+3,	60.589223E-9
1.549176E+3,	63.662998E-9
1.549180E+3,	66.059759E-9
1.549184E+3,	66.956515E-9
1.549188E+3,	66.467539E-9
1.549192E+3,	64.699154E-9
1.549196E+3,	61.836135E-9
1.549200E+3,	57.240235E-9
1.549204E+3,	52.050020E-9
1.549208E+3,	47.151540E-9
1.549212E+3,	41.402128E-9
1.549216E+3,	34.235341E-9
1.549220E+3,	28.202753E-9
1.549224E+3,	23.887402E-9
1.549228E+3,	19.964767E-9
1.549232E+3,	16.967212E-9
1.549236E+3,	14.924441E-9
1.549240E+3,	14.671088E-9
1.549244E+3,	15.907245E-9
1.549248E+3,	18.708021E-9
1.549252E+3,	22.805483E-9
1.549256E+3,	28.980769E-9
1.549260E+3,	35.945416E-9
1.549264E+3,	42.696862E-9
1.549268E+3,	50.744703E-9
1.549272E+3,	60.231177E-9
1.549276E+3,	68.323445E-9
1.549280E+3,	74.692994E-9
1.549284E+3,	80.936392E-9
1.549288E+3,	86.105477E-9
1.549292E+3,	90.362945E-9
1.549296E+3,	92.379078E-9
1.549300E+3,	92.308029E-9
1.549304E+3,	90.778085E-9
1.549308E+3,	87.701549E-9
1.549312E+3,	81.744091E-9
1.549316E+3,	74.325357E-9
1.549320E+3,	67.240762E-9
1.549324E+3,	59.162777E-9
1.549328E+3,	49.292237E-9
1.549332E+3,	40.393654E-9
1.549336E+3,	33.816767E-9
1.549340E+3,	27.293828E-9
1.549344E+3,	22.346489E-9
1.549348E+3,	19.003271E-9
1.549352E+3,	18.074765E-9
1.549356E+3,	19.095117E-9
1.549360E+3,	21.960208E-9
1.549364E+3,	27.500788E-9
1.549368E+3,	34.473832E-9
1.549372E+3,	41.941762E-9
1.549376E+3,	51.649724E-9
1.549380E+3,	62.065250E-9
1.549384E+3,	74.634517E-9
1.549388E+3,	86.366604E-9
1.549392E+3,	95.763145E-9
1.549396E+3,	105.139086E-9
1.549400E+3,	113.240923E-9
1.549404E+3,	120.494481E-9
1.549408E+3,	124.110815E-9
1.549412E+3,	124.625222E-9
1.549416E+3,	122.936893E-9
1.549420E+3,	117.818534E-9
1.549424E+3,	110.423421E-9
1.549428E+3,	102.312544E-9
1.549432E+3,	92.022443E-9
1.549436E+3,	81.415017E-9
1.549440E+3,	68.590047E-9
1.549444E+3,	56.398908E-9
1.549448E+3,	47.142696E-9
1.549452E+3,	38.236515E-9
1.549456E+3,	30.884843E-9
1.549460E+3,	25.489924E-9
1.549464E+3,	23.244886E-9
1.549468E+3,	23.659518E-9
1.549472E+3,	26.376607E-9
1.549476E+3,	33.455361E-9
1.549480E+3,	42.737950E-9
1.549484E+3,	52.011993E-9
1.549488E+3,	63.546998E-9
1.549492E+3,	75.904668E-9
1.549496E+3,	91.745420E-9
1.549500E+3,	106.159484E-9
1.549504E+3,	117.423939E-9
1.549508E+3,	128.937737E-9
1.549512E+3,	139.887764E-9
1.549516E+3,	147.127602E-9
1.549520E+3,	150.506737E-9
1.549524E+3,	151.659582E-9
1.549528E+3,	149.905026E-9
1.549532E+3,	143.766149E-9
1.549536E+3,	134.651609E-9
1.549540E+3,	125.057185E-9
1.549544E+3,	113.611722E-9
1.549548E+3,	101.026972E-9
1.549552E+3,	84.078244E-9
1.549556E+3,	68.503477E-9
1.549560E+3,	56.693177E-9
1.549564E+3,	45.237697E-9
1.549568E+3,	35.231008E-9
1.549572E+3,	29.207195E-9
1.549576E+3,	26.784964E-9
1.549580E+3,	26.751558E-9
1.549584E+3,	29.738963E-9
1.549588E+3,	37.098399E-9
1.549592E+3,	46.769767E-9
1.549596E+3,	56.562307E-9
1.549600E+3,	68.504688E-9
1.549604E+3,	81.644935E-9
1.549608E+3,	98.231828E-9
1.549612E+3,	113.683696E-9
1.549616E+3,	125.968747E-9
1.549620E+3,	137.622237E-9
1.549624E+3,	148.626393E-9
1.549628E+3,	156.268528E-9
1.549632E+3,	160.023011E-9
1.549636E+3,	161.225459E-9
1.549640E+3,	159.219010E-9
1.549644E+3,	152.413939E-9
1.549648E+3,	142.936280E-9
1.549652E+3,	132.660453E-9
1.549656E+3,	119.934896E-9
1.549660E+3,	103.189267E-9
1.549664E+3,	87.024254E-9
1.549668E+3,	74.168995E-9
1.549672E+3,	60.649939E-9
1.549676E+3,	48.874322E-9
1.549680E+3,	37.843574E-9
1.549684E+3,	30.535425E-9
1.549688E+3,	27.066792E-9
1.549692E+3,	25.832197E-9
1.549696E+3,	27.628057E-9
1.549700E+3,	33.339071E-9
1.549704E+3,	41.389644E-9
1.549708E+3,	49.678047E-9
1.549712E+3,	60.358526E-9
1.549716E+3,	75.481882E-9
1.549720E+3,	90.667527E-9
1.549724E+3,	102.845737E-9
1.549728E+3,	115.038621E-9
1.549732E+3,	126.027560E-9
1.549736E+3,	137.197117E-9
1.549740E+3,	145.192975E-9
1.549744E+3,	149.547628E-9
1.549748E+3,	151.894347E-9
1.549752E+3,	151.322568E-9
1.549756E+3,	146.976590E-9
1.549760E+3,	140.302708E-9
1.549764E+3,	133.063066E-9
1.549768E+3,	122.800938E-9
1.549772E+3,	107.921245E-9
1.549776E+3,	93.166547E-9
1.549780E+3,	81.321490E-9
1.549784E+3,	68.665612E-9
1.549788E+3,	56.807029E-9
1.549792E+3,	44.432408E-9
1.549796E+3,	34.615599E-9
1.549800E+3,	28.756294E-9
1.549804E+3,	25.244309E-9
1.549808E+3,	24.955867E-9
1.549812E+3,	27.780705E-9
1.549816E+3,	32.580572E-9
1.549820E+3,	39.867074E-9
1.549824E+3,	49.150143E-9
1.549828E+3,	62.703589E-9
1.549832E+3,	75.853500E-9
1.549836E+3,	86.569280E-9
1.549840E+3,	98.604783E-9
1.549844E+3,	110.331061E-9
1.549848E+3,	123.319031E-9
1.549852E+3,	133.907811E-9
1.549856E+3,	140.840790E-9
1.549860E+3,	146.241974E-9
1.549864E+3,	149.499963E-9
1.549868E+3,	149.624441E-9
1.549872E+3,	147.181994E-9
1.549876E+3,	141.902879E-9
1.549880E+3,	133.824730E-9
1.549884E+3,	121.684352E-9
1.549888E+3,	108.537830E-9
1.549892E+3,	97.020031E-9
1.549896E+3,	84.009058E-9
1.549900E+3,	70.913943E-9
1.549904E+3,	55.913790E-9
1.549908E+3,	43.987489E-9
1.549912E+3,	36.382783E-9
1.549916E+3,	30.204882E-9
1.549920E+3,	26.387558E-9
1.549924E+3,	25.962560E-9
1.549928E+3,	28.325310E-9
1.549932E+3,	33.631703E-9
1.549936E+3,	41.305367E-9
1.549940E+3,	53.251502E-9
1.549944E+3,	65.949486E-9
1.549948E+3,	77.166142E-9
1.549952E+3,	90.275514E-9
1.549956E+3,	104.125518E-9
1.549960E+3,	119.922771E-9
1.549964E+3,	133.104737E-9
1.549968E+3,	141.668835E-9
1.549972E+3,	148.687776E-9
1.549976E+3,	154.137890E-9
1.549980E+3,	156.359349E-9
1.549984E+3,	155.248205E-9
1.549988E+3,	151.222575E-9
1.549992E+3,	144.862683E-9
1.549996E+3,	134.494701E-9
1.550000E+3,	122.199010E-9
1.550004E+3,	110.891086E-9
1.550008E+3,	97.380615E-9
1.550012E+3,	80.292350E-9
1.550016E+3,	65.533313E-9
1.550020E+3,	54.401063E-9
1.550024E+3,	43.813653E-9
1.550028E+3,	35.634340E-9
1.550032E+3,	29.101901E-9
1.550036E+3,	26.530648E-9
1.550040E+3,	27.709489E-9
1.550044E+3,	32.125137E-9
1.550048E+3,	40.948726E-9
1.550052E+3,	51.623725E-9
1.550056E+3,	62.013841E-9
1.550060E+3,	75.130165E-9
1.550064E+3,	89.250586E-9
1.550068E+3,	105.691768E-9
1.550072E+3,	119.765176E-9
1.550076E+3,	129.869218E-9
1.550080E+3,	139.125210E-9
1.550084E+3,	147.922784E-9
1.550088E+3,	153.379789E-9
1.550092E+3,	155.279806E-9
1.550096E+3,	154.833688E-9
1.550100E+3,	151.679055E-9
1.550104E+3,	144.379945E-9
1.550108E+3,	134.866097E-9
1.550112E+3,	125.227506E-9
1.550116E+3,	112.585961E-9
1.550120E+3,	95.499916E-9
1.550124E+3,	79.896846E-9
1.550128E+3,	68.012229E-9
1.550132E+3,	55.381825E-9
1.550136E+3,	42.124149E-9
1.550140E+3,	33.189066E-9
1.550144E+3,	28.673172E-9
1.550148E+3,	26.493008E-9
1.550152E+3,	27.549281E-9
1.550156E+3,	32.530533E-9
1.550160E+3,	40.249038E-9
1.550164E+3,	49.094624E-9
1.550168E+3,	60.512543E-9
1.550172E+3,	75.935561E-9
1.550176E+3,	90.672895E-9
1.550180E+3,	102.443837E-9
1.550184E+3,	115.099536E-9
1.550188E+3,	126.384594E-9
1.550192E+3,	138.491205E-9
1.550196E+3,	147.557805E-9
1.550200E+3,	152.132390E-9
1.550204E+3,	154.456065E-9
1.550208E+3,	153.081111E-9
1.550212E+3,	148.494804E-9
1.550216E+3,	142.568359E-9
1.550220E+3,	133.986461E-9
1.550224E+3,	123.077726E-9
1.550228E+3,	107.664087E-9
1.550232E+3,	93.212776E-9
1.550236E+3,	81.235689E-9
1.550240E+3,	68.516381E-9
1.550244E+3,	54.824802E-9
1.550248E+3,	43.322118E-9
1.550252E+3,	35.491694E-9
1.550256E+3,	29.272726E-9
1.550260E+3,	26.104454E-9
1.550264E+3,	26.326451E-9
1.550268E+3,	29.816338E-9
1.550272E+3,	35.451258E-9
1.550276E+3,	44.305799E-9
1.550280E+3,	58.454528E-9
1.550284E+3,	73.537911E-9
1.550288E+3,	86.125789E-9
1.550292E+3,	99.574922E-9
1.550296E+3,	112.534425E-9
1.550300E+3,	127.079297E-9
1.550304E+3,	138.691486E-9
1.550308E+3,	145.885953E-9
1.550312E+3,	151.390114E-9
1.550316E+3,	154.316553E-9
1.550320E+3,	153.878876E-9
1.550324E+3,	151.017357E-9
1.550328E+3,	145.226922E-9
1.550332E+3,	137.168705E-9
1.550336E+3,	125.601449E-9
1.550340E+3,	113.026187E-9
1.550344E+3,	101.613689E-9
1.550348E+3,	88.374753E-9
1.550352E+3,	72.659311E-9
1.550356E+3,	58.924021E-9
1.550360E+3,	48.627818E-9
1.550364E+3,	39.086700E-9
1.550368E+3,	31.013526E-9
1.550372E+3,	26.821819E-9
1.550376E+3,	26.078822E-9
1.550380E+3,	28.059317E-9
1.550384E+3,	33.208741E-9
1.550388E+3,	43.442596E-9
1.550392E+3,	55.204199E-9
1.550396E+3,	65.971980E-9
1.550400E+3,	78.830474E-9
1.550404E+3,	95.360244E-9
1.550408E+3,	110.405450E-9
1.550412E+3,	122.118153E-9
1.550416E+3,	133.782494E-9
1.550420E+3,	143.002354E-9
1.550424E+3,	150.514996E-9
1.550428E+3,	154.756002E-9
1.550432E+3,	155.814535E-9
1.550436E+3,	154.198887E-9
1.550440E+3,	148.470791E-9
1.550444E+3,	140.175240E-9
1.550448E+3,	131.316141E-9
1.550452E+3,	120.208092E-9
1.550456E+3,	107.980444E-9
1.550460E+3,	91.851775E-9
1.550464E+3,	76.451060E-9
1.550468E+3,	64.515374E-9
1.550472E+3,	52.728703E-9
1.550476E+3,	41.524088E-9
1.550480E+3,	33.689396E-9
1.550484E+3,	29.474868E-9
1.550488E+3,	27.203606E-9
1.550492E+3,	27.885234E-9
1.550496E+3,	32.784208E-9
1.550500E+3,	40.195853E-9
1.550504E+3,	48.594943E-9
1.550508E+3,	60.233907E-9
1.550512E+3,	76.178505E-9
1.550516E+3,	91.885504E-9
1.550520E+3,	105.124520E-9
1.550524E+3,	119.149990E-9
1.550528E+3,	131.774051E-9
1.550532E+3,	143.875781E-9
1.550536E+3,	152.663387E-9
1.550540E+3,	157.487270E-9
1.550544E+3,	160.150613E-9
1.550548E+3,	159.028721E-9
1.550552E+3,	154.767598E-9
1.550556E+3,	148.829082E-9
1.550560E+3,	140.290286E-9
1.550564E+3,	129.733501E-9
1.550568E+3,	114.827380E-9
1.550572E+3,	100.158044E-9
1.550576E+3,	87.909884E-9
1.550580E+3,	75.321799E-9
1.550584E+3,	61.498531E-9
1.550588E+3,	49.384454E-9
1.550592E+3,	40.833146E-9
1.550596E+3,	33.482899E-9
1.550600E+3,	28.635334E-9
1.550604E+3,	27.086601E-9
1.550608E+3,	29.174420E-9
1.550612E+3,	33.655931E-9
1.550616E+3,	41.240064E-9
1.550620E+3,	53.545712E-9
1.550624E+3,	67.312414E-9
1.550628E+3,	80.160917E-9
1.550632E+3,	94.629008E-9
1.550636E+3,	111.667032E-9
1.550640E+3,	125.420931E-9
1.550644E+3,	135.421264E-9
1.550648E+3,	145.181285E-9
1.550652E+3,	152.805728E-9
1.550656E+3,	158.028581E-9
1.550660E+3,	159.306358E-9
1.550664E+3,	157.736436E-9
1.550668E+3,	153.692709E-9
1.550672E+3,	145.150859E-9
1.550676E+3,	134.687263E-9
1.550680E+3,	124.093110E-9
1.550684E+3,	110.811545E-9
1.550688E+3,	96.996179E-9
1.550692E+3,	81.065506E-9
1.550696E+3,	67.095195E-9
1.550700E+3,	55.713261E-9
1.550704E+3,	44.642115E-9
1.550708E+3,	34.849232E-9
1.550712E+3,	28.984757E-9
1.550716E+3,	26.745220E-9
1.550720E+3,	26.767782E-9
1.550724E+3,	29.588106E-9
1.550728E+3,	36.804092E-9
1.550732E+3,	46.407622E-9
1.550736E+3,	56.384222E-9
1.550740E+3,	68.807294E-9
1.550744E+3,	85.081972E-9
1.550748E+3,	100.373106E-9
1.550752E+3,	112.605001E-9
1.550756E+3,	125.512632E-9
1.550760E+3,	136.749527E-9
1.550764E+3,	147.102026E-9
1.550768E+3,	153.121079E-9
1.550772E+3,	155.114086E-9
1.550776E+3,	154.684092E-9
1.550780E+3,	149.860443E-9
1.550784E+3,	141.969906E-9
1.550788E+3,	133.158659E-9
1.550792E+3,	122.104760E-9
1.550796E+3,	109.973355E-9
1.550800E+3,	94.691453E-9
1.550804E+3,	80.101575E-9
1.550808E+3,	68.128126E-9
1.550812E+3,	56.058945E-9
1.550816E+3,	43.598256E-9
1.550820E+3,	34.897185E-9
1.550824E+3,	30.057345E-9
1.550828E+3,	26.656580E-9
1.550832E+3,	25.847867E-9
1.550836E+3,	28.895794E-9
1.550840E+3,	34.882341E-9
1.550844E+3,	42.165405E-9
1.550848E+3,	52.200262E-9
1.550852E+3,	66.133761E-9
1.550856E+3,	80.674506E-9
1.550860E+3,	93.299124E-9
1.550864E+3,	107.399373E-9
1.550868E+3,	123.218162E-9
1.550872E+3,	135.732753E-9
1.550876E+3,	143.894215E-9
1.550880E+3,	150.519224E-9
1.550884E+3,	154.313065E-9
1.550888E+3,	154.743145E-9
1.550892E+3,	151.669194E-9
1.550896E+3,	146.401093E-9
1.550900E+3,	138.503960E-9
1.550904E+3,	126.695390E-9
1.550908E+3,	114.163975E-9
1.550912E+3,	102.466595E-9
1.550916E+3,	88.579772E-9
1.550920E+3,	74.803010E-9
1.550924E+3,	59.965118E-9
1.550928E+3,	48.189657E-9
1.550932E+3,	40.082870E-9
1.550936E+3,	32.702681E-9
1.550940E+3,	27.419459E-9
1.550944E+3,	26.021581E-9
1.550948E+3,	27.691983E-9
1.550952E+3,	31.945115E-9
1.550956E+3,	38.605559E-9
1.550960E+3,	49.577301E-9
1.550964E+3,	61.924925E-9
1.550968E+3,	73.646942E-9
1.550972E+3,	87.241360E-9
1.550976E+3,	102.875338E-9
1.550980E+3,	116.837683E-9
1.550984E+3,	127.135708E-9
1.550988E+3,	137.143501E-9
1.550992E+3,	145.779763E-9
1.550996E+3,	152.684101E-9
1.551000E+3,	155.057972E-9
1.551004E+3,	154.010648E-9
1.551008E+3,	150.155752E-9
1.551012E+3,	141.621274E-9
1.551016E+3,	130.657879E-9
1.551020E+3,	119.752412E-9
1.551024E+3,	105.870354E-9
1.551028E+3,	88.789717E-9
1.551032E+3,	74.067763E-9
1.551036E+3,	63.238079E-9
1.551040E+3,	52.485256E-9
1.551044E+3,	42.939613E-9
1.551048E+3,	34.038706E-9
1.551052E+3,	28.899997E-9
1.551056E+3,	27.298010E-9
1.551060E+3,	28.002420E-9
1.551064E+3,	32.313351E-9
1.551068E+3,	39.098363E-9
1.551072E+3,	47.047571E-9
1.551076E+3,	58.179896E-9
1.551080E+3,	73.471432E-9
1.551084E+3,	88.229989E-9
1.551088E+3,	101.197094E-9
1.551092E+3,	114.988394E-9
1.551096E+3,	128.067487E-9
1.551100E+3,	141.915000E-9
1.551104E+3,	152.053335E-9
1.551108E+3,	157.649522E-9
1.551112E+3,	160.854084E-9
1.551116E+3,	160.661137E-9
1.551120E+3,	156.687833E-9
1.551124E+3,	150.727523E-9
1.551128E+3,	141.500770E-9
1.551132E+3,	127.343621E-9
1.551136E+3,	112.650987E-9
1.551140E+3,	99.992653E-9
1.551144E+3,	85.911769E-9
1.551148E+3,	69.877304E-9
1.551152E+3,	56.495461E-9
1.551156E+3,	46.568318E-9
1.551160E+3,	37.533787E-9
1.551164E+3,	31.464735E-9
1.551168E+3,	27.983263E-9
1.551172E+3,	27.910046E-9
1.551176E+3,	30.510493E-9
1.551180E+3,	36.104219E-9
1.551184E+3,	46.641870E-9
1.551188E+3,	58.654781E-9
1.551192E+3,	69.509457E-9
1.551196E+3,	82.293149E-9
1.551200E+3,	98.412597E-9
1.551204E+3,	113.461911E-9
1.551208E+3,	124.951090E-9
1.551212E+3,	136.421314E-9
1.551216E+3,	145.790405E-9
1.551220E+3,	153.801765E-9
1.551224E+3,	158.124762E-9
1.551228E+3,	159.044325E-9
1.551232E+3,	157.337257E-9
1.551236E+3,	150.992268E-9
1.551240E+3,	141.799210E-9
1.551244E+3,	132.016049E-9
1.551248E+3,	119.296410E-9
1.551252E+3,	102.860683E-9
1.551256E+3,	87.187803E-9
1.551260E+3,	73.785047E-9
1.551264E+3,	59.987936E-9
1.551268E+3,	48.280054E-9
1.551272E+3,	38.055027E-9
1.551276E+3,	31.502669E-9
1.551280E+3,	28.393767E-9
1.551284E+3,	27.592450E-9
1.551288E+3,	30.559764E-9
1.551292E+3,	36.329772E-9
1.551296E+3,	43.203211E-9
1.551300E+3,	52.648316E-9
1.551304E+3,	65.680325E-9
1.551308E+3,	78.925911E-9
1.551312E+3,	90.996959E-9
1.551316E+3,	104.434892E-9
1.551320E+3,	117.087113E-9
1.551324E+3,	130.953044E-9
1.551328E+3,	141.748348E-9
1.551332E+3,	148.356553E-9
1.551336E+3,	153.460754E-9
1.551340E+3,	155.987864E-9
1.551344E+3,	154.714338E-9
1.551348E+3,	150.760265E-9
1.551352E+3,	144.088855E-9
1.551356E+3,	133.717428E-9
1.551360E+3,	121.266206E-9
1.551364E+3,	109.405252E-9
1.551368E+3,	95.381547E-9
1.551372E+3,	78.236929E-9
1.551376E+3,	63.835880E-9
1.551380E+3,	53.748720E-9
1.551384E+3,	43.976633E-9
1.551388E+3,	35.942220E-9
1.551392E+3,	29.646055E-9
1.551396E+3,	27.191650E-9
1.551400E+3,	27.901917E-9
1.551404E+3,	31.251179E-9
1.551408E+3,	38.416296E-9
1.551412E+3,	47.701780E-9
1.551416E+3,	57.314814E-9
1.551420E+3,	69.418702E-9
1.551424E+3,	85.419201E-9
1.551428E+3,	99.805776E-9
1.551432E+3,	110.450702E-9
1.551436E+3,	122.203379E-9
1.551440E+3,	133.165233E-9
1.551444E+3,	143.746434E-9
1.551448E+3,	151.105136E-9
1.551452E+3,	154.763050E-9
1.551456E+3,	156.190050E-9
1.551460E+3,	154.186932E-9
1.551464E+3,	149.653071E-9
1.551468E+3,	143.387602E-9
1.551472E+3,	134.300193E-9
1.551476E+3,	120.128996E-9
1.551480E+3,	105.465624E-9
1.551484E+3,	93.227599E-9
1.551488E+3,	80.074889E-9
1.551492E+3,	66.651209E-9
1.551496E+3,	52.947495E-9
1.551500E+3,	42.502893E-9
1.551504E+3,	35.703082E-9
1.551508E+3,	30.135036E-9
1.551512E+3,	27.065067E-9
1.551516E+3,	27.662874E-9
1.551520E+3,	31.063671E-9
1.551524E+3,	37.547865E-9
1.551528E+3,	47.956799E-9
1.551532E+3,	59.704536E-9
1.551536E+3,	71.172578E-9
1.551540E+3,	84.729197E-9
1.551544E+3,	98.612465E-9
1.551548E+3,	113.989042E-9
1.551552E+3,	126.121280E-9
1.551556E+3,	134.531792E-9
1.551560E+3,	141.966638E-9
1.551564E+3,	147.951116E-9
1.551568E+3,	150.408382E-9
1.551572E+3,	149.438401E-9
1.551576E+3,	145.765440E-9
1.551580E+3,	138.387965E-9
1.551584E+3,	129.370872E-9
1.551588E+3,	120.111729E-9
1.551592E+3,	108.275142E-9
1.551596E+3,	95.459521E-9
1.551600E+3,	79.434593E-9
1.551604E+3,	65.218578E-9
1.551608E+3,	54.888477E-9
1.551612E+3,	45.088386E-9
1.551616E+3,	35.576053E-9
1.551620E+3,	29.266014E-9
1.551624E+3,	26.694741E-9
1.551628E+3,	26.609026E-9
1.551632E+3,	29.959656E-9
1.551636E+3,	35.873745E-9
1.551640E+3,	43.055205E-9
1.551644E+3,	53.030419E-9
1.551648E+3,	67.748065E-9
1.551652E+3,	82.482354E-9
1.551656E+3,	94.435167E-9
1.551660E+3,	106.847346E-9
1.551664E+3,	118.768470E-9
1.551668E+3,	131.481113E-9
1.551672E+3,	140.924278E-9
1.551676E+3,	146.087270E-9
1.551680E+3,	149.252356E-9
1.551684E+3,	148.970435E-9
1.551688E+3,	145.510124E-9
1.551692E+3,	140.535876E-9
1.551696E+3,	132.739904E-9
1.551700E+3,	120.217680E-9
1.551704E+3,	106.613982E-9
1.551708E+3,	94.775562E-9
1.551712E+3,	81.871499E-9
1.551716E+3,	69.824362E-9
1.551720E+3,	56.543135E-9
1.551724E+3,	45.060406E-9
1.551728E+3,	37.224253E-9
1.551732E+3,	31.078126E-9
1.551736E+3,	26.968863E-9
1.551740E+3,	26.092015E-9
1.551744E+3,	27.736976E-9
1.551748E+3,	31.968686E-9
1.551752E+3,	40.775470E-9
1.551756E+3,	51.552323E-9
1.551760E+3,	62.044252E-9
1.551764E+3,	74.596435E-9
1.551768E+3,	87.232952E-9
1.551772E+3,	102.237217E-9
1.551776E+3,	115.521097E-9
1.551780E+3,	125.045012E-9
1.551784E+3,	133.956879E-9
1.551788E+3,	141.479353E-9
1.551792E+3,	145.349724E-9
1.551796E+3,	145.870356E-9
1.551800E+3,	143.919327E-9
1.551804E+3,	138.033895E-9
1.551808E+3,	129.673753E-9
1.551812E+3,	120.852434E-9
1.551816E+3,	109.859860E-9
1.551820E+3,	98.187164E-9
1.551824E+3,	83.804253E-9
1.551828E+3,	70.259162E-9
1.551832E+3,	59.294962E-9
1.551836E+3,	48.251194E-9
1.551840E+3,	37.191422E-9
1.551844E+3,	29.846883E-9
1.551848E+3,	26.332723E-9
1.551852E+3,	24.641042E-9
1.551856E+3,	25.991129E-9
1.551860E+3,	30.280057E-9
1.551864E+3,	36.060155E-9
1.551868E+3,	44.572994E-9
1.551872E+3,	56.318257E-9
1.551876E+3,	68.387722E-9
1.551880E+3,	79.186423E-9
1.551884E+3,	91.425212E-9
1.551888E+3,	103.479277E-9
1.551892E+3,	116.373932E-9
1.551896E+3,	125.856015E-9
1.551900E+3,	131.666823E-9
1.551904E+3,	136.180720E-9
1.551908E+3,	138.288488E-9
1.551912E+3,	137.180933E-9
1.551916E+3,	133.682563E-9
1.551920E+3,	127.683458E-9
1.551924E+3,	117.210452E-9
1.551928E+3,	105.412543E-9
1.551932E+3,	95.328272E-9
1.551936E+3,	83.271397E-9
1.551940E+3,	70.566539E-9
1.551944E+3,	56.518367E-9
1.551948E+3,	45.456390E-9
1.551952E+3,	37.824595E-9
1.551956E+3,	31.000160E-9
1.551960E+3,	25.724010E-9
1.551964E+3,	23.691127E-9
1.551968E+3,	24.373239E-9
1.551972E+3,	27.249501E-9
1.551976E+3,	33.756724E-9
1.551980E+3,	41.917576E-9
1.551984E+3,	49.610848E-9
1.551988E+3,	59.853137E-9
1.551992E+3,	71.611103E-9
1.551996E+3,	86.270299E-9
1.552000E+3,	99.255155E-9
1.552004E+3,	108.863373E-9
1.552008E+3,	118.331801E-9
1.552012E+3,	127.439579E-9
1.552016E+3,	133.274632E-9
1.552020E+3,	135.853342E-9
1.552024E+3,	136.105646E-9
1.552028E+3,	132.833665E-9
1.552032E+3,	127.179499E-9
1.552036E+3,	120.815042E-9
1.552040E+3,	111.939806E-9
1.552044E+3,	99.099687E-9
1.552048E+3,	85.818300E-9
1.552052E+3,	74.716530E-9
1.552056E+3,	63.346032E-9
1.552060E+3,	51.151610E-9
1.552064E+3,	41.115774E-9
1.552068E+3,	34.199145E-9
1.552072E+3,	28.320194E-9
1.552076E+3,	24.554047E-9
1.552080E+3,	24.127509E-9
1.552084E+3,	26.068751E-9
1.552088E+3,	30.523760E-9
1.552092E+3,	37.003437E-9
1.552096E+3,	46.728833E-9
1.552100E+3,	57.529908E-9
1.552104E+3,	67.644874E-9
1.552108E+3,	78.952957E-9
1.552112E+3,	91.794146E-9
1.552116E+3,	102.963935E-9
1.552120E+3,	111.525943E-9
1.552124E+3,	119.706646E-9
1.552128E+3,	127.203387E-9
1.552132E+3,	131.600380E-9
1.552136E+3,	132.930272E-9
1.552140E+3,	132.297808E-9
1.552144E+3,	128.538550E-9
1.552148E+3,	122.514617E-9
1.552152E+3,	115.312794E-9
1.552156E+3,	105.351131E-9
1.552160E+3,	91.898315E-9
1.552164E+3,	79.361559E-9
1.552168E+3,	69.226342E-9
1.552172E+3,	58.234808E-9
1.552176E+3,	46.233887E-9
1.552180E+3,	36.856609E-9
1.552184E+3,	31.027171E-9
1.552188E+3,	26.568142E-9
1.552192E+3,	24.538684E-9
1.552196E+3,	25.175945E-9
1.552200E+3,	28.338732E-9
1.552204E+3,	33.167849E-9
1.552208E+3,	40.378698E-9
1.552212E+3,	51.168280E-9
1.552216E+3,	62.190347E-9
1.552220E+3,	71.572710E-9
1.552224E+3,	82.155589E-9
1.552228E+3,	95.198741E-9
1.552232E+3,	106.815386E-9
1.552236E+3,	115.386382E-9
1.552240E+3,	123.300987E-9
1.552244E+3,	129.786995E-9
1.552248E+3,	133.246893E-9
1.552252E+3,	133.843327E-9
1.552256E+3,	132.310722E-9
1.552260E+3,	126.766216E-9
1.552264E+3,	118.750314E-9
1.552268E+3,	110.668397E-9
1.552272E+3,	100.800783E-9
1.552276E+3,	87.894618E-9
1.552280E+3,	75.083762E-9
1.552284E+3,	64.373107E-9
1.552288E+3,	52.869636E-9
1.552292E+3,	42.802681E-9
1.552296E+3,	33.469572E-9
1.552300E+3,	27.374234E-9
1.552304E+3,	24.269583E-9
1.552308E+3,	22.920673E-9
1.552312E+3,	24.786549E-9
1.552316E+3,	29.205805E-9
1.552320E+3,	34.645386E-9
1.552324E+3,	42.367636E-9
1.552328E+3,	53.989758E-9
1.552332E+3,	66.048174E-9
1.552336E+3,	76.142073E-9
1.552340E+3,	87.286758E-9
1.552344E+3,	99.940407E-9
1.552348E+3,	110.435233E-9
1.552352E+3,	117.481779E-9
1.552356E+3,	123.518406E-9
1.552360E+3,	128.133795E-9
1.552364E+3,	129.698956E-9
1.552368E+3,	128.601609E-9
1.552372E+3,	125.265314E-9
1.552376E+3,	118.454718E-9
1.552380E+3,	110.367151E-9
1.552384E+3,	101.917001E-9
1.552388E+3,	90.920411E-9
1.552392E+3,	78.978456E-9
1.552396E+3,	65.030392E-9
1.552400E+3,	53.065765E-9
1.552404E+3,	44.292249E-9
1.552408E+3,	35.937494E-9
1.552412E+3,	28.309737E-9
1.552416E+3,	24.092686E-9
1.552420E+3,	22.939929E-9
1.552424E+3,	23.922288E-9
1.552428E+3,	28.169451E-9
1.552432E+3,	34.494410E-9
1.552436E+3,	41.025656E-9
1.552440E+3,	49.453034E-9
1.552444E+3,	61.541828E-9
1.552448E+3,	73.249006E-9
1.552452E+3,	82.454918E-9
1.552456E+3,	92.110166E-9
1.552460E+3,	102.406535E-9
1.552464E+3,	111.043026E-9
1.552468E+3,	116.796993E-9
1.552472E+3,	121.567839E-9
1.552476E+3,	124.243603E-9
1.552480E+3,	123.976152E-9
1.552484E+3,	121.515111E-9
1.552488E+3,	116.700510E-9
1.552492E+3,	109.999159E-9
1.552496E+3,	99.795779E-9
1.552500E+3,	88.371087E-9
1.552504E+3,	78.196691E-9
1.552508E+3,	67.203685E-9
1.552512E+3,	54.519865E-9
1.552516E+3,	44.139054E-9
1.552520E+3,	36.798614E-9
1.552524E+3,	29.951181E-9
1.552528E+3,	24.564732E-9
1.552532E+3,	22.416143E-9
1.552536E+3,	22.747051E-9
1.552540E+3,	25.089728E-9
1.552544E+3,	30.802279E-9
1.552548E+3,	38.534429E-9
1.552552E+3,	46.355983E-9
1.552556E+3,	56.050906E-9
1.552560E+3,	68.205622E-9
1.552564E+3,	79.217211E-9
1.552568E+3,	87.901904E-9
1.552572E+3,	97.109522E-9
1.552576E+3,	106.940452E-9
1.552580E+3,	113.898690E-9
1.552584E+3,	117.619534E-9
1.552588E+3,	119.922503E-9
1.552592E+3,	120.205277E-9
1.552596E+3,	118.014112E-9
1.552600E+3,	113.622450E-9
1.552604E+3,	107.896273E-9
1.552608E+3,	100.480462E-9
1.552612E+3,	90.171939E-9
1.552616E+3,	79.638199E-9
1.552620E+3,	70.327080E-9
1.552624E+3,	59.757485E-9
1.552628E+3,	47.514771E-9
1.552632E+3,	37.663967E-9
1.552636E+3,	31.037420E-9
1.552640E+3,	25.580225E-9
1.552644E+3,	21.823624E-9
1.552648E+3,	20.926961E-9
1.552652E+3,	22.334256E-9
1.552656E+3,	26.015277E-9
1.552660E+3,	33.286292E-9
1.552664E+3,	41.707164E-9
1.552668E+3,	49.393912E-9
1.552672E+3,	58.890300E-9
1.552676E+3,	70.889154E-9
1.552680E+3,	81.669190E-9
1.552684E+3,	90.235875E-9
1.552688E+3,	98.492912E-9
1.552692E+3,	104.891027E-9
1.552696E+3,	110.094817E-9
1.552700E+3,	112.870529E-9
1.552704E+3,	113.374598E-9
1.552708E+3,	112.052886E-9
1.552712E+3,	107.755004E-9
1.552716E+3,	101.765780E-9
1.552720E+3,	95.598648E-9
1.552724E+3,	87.614377E-9
1.552728E+3,	76.895503E-9
1.552732E+3,	66.120621E-9
1.552736E+3,	57.107268E-9
1.552740E+3,	47.419336E-9
1.552744E+3,	37.148638E-9
1.552748E+3,	29.503741E-9
1.552752E+3,	24.605175E-9
1.552756E+3,	20.802386E-9
1.552760E+3,	18.987087E-9
1.552764E+3,	19.924828E-9
1.552768E+3,	22.620651E-9
1.552772E+3,	27.437420E-9
1.552776E+3,	35.014815E-9
1.552780E+3,	43.200688E-9
1.552784E+3,	51.147988E-9
1.552788E+3,	60.324861E-9
1.552792E+3,	69.562058E-9
1.552796E+3,	80.019277E-9
1.552800E+3,	88.574609E-9
1.552804E+3,	94.298664E-9
1.552808E+3,	99.000639E-9
1.552812E+3,	102.542185E-9
1.552816E+3,	103.461909E-9
1.552820E+3,	102.229536E-9
1.552824E+3,	99.245651E-9
1.552828E+3,	93.549778E-9
1.552832E+3,	86.841237E-9
1.552836E+3,	80.317544E-9
1.552840E+3,	72.144454E-9
1.552844E+3,	61.738892E-9
1.552848E+3,	52.112962E-9
1.552852E+3,	44.625252E-9
1.552856E+3,	37.010329E-9
1.552860E+3,	29.157806E-9
1.552864E+3,	23.200213E-9
1.552868E+3,	19.669164E-9
1.552872E+3,	17.367580E-9
1.552876E+3,	17.185011E-9
1.552880E+3,	19.051277E-9
1.552884E+3,	22.268155E-9
1.552888E+3,	27.286780E-9
1.552892E+3,	33.750605E-9
1.552896E+3,	42.602306E-9
1.552900E+3,	51.177210E-9
1.552904E+3,	58.310856E-9
1.552908E+3,	65.961596E-9
1.552912E+3,	74.284328E-9
1.552916E+3,	80.880452E-9
1.552920E+3,	85.171196E-9
1.552924E+3,	88.753440E-9
1.552928E+3,	90.992369E-9
1.552932E+3,	91.032388E-9
1.552936E+3,	89.722520E-9
1.552940E+3,	87.035914E-9
1.552944E+3,	81.847962E-9
1.552948E+3,	75.459037E-9
1.552952E+3,	69.528273E-9
1.552956E+3,	62.599933E-9
1.552960E+3,	53.566948E-9
1.552964E+3,	45.313387E-9
1.552968E+3,	39.062176E-9
1.552972E+3,	32.238296E-9
1.552976E+3,	25.382147E-9
1.552980E+3,	20.569865E-9
1.552984E+3,	17.749140E-9
1.552988E+3,	16.122529E-9
1.552992E+3,	16.198259E-9
1.552996E+3,	17.892878E-9
1.553000E+3,	20.745357E-9
1.553004E+3,	25.057180E-9
1.553008E+3,	31.485685E-9
1.553012E+3,	38.043331E-9
1.553016E+3,	43.444292E-9
1.553020E+3,	49.492030E-9
1.553024E+3,	57.088448E-9
1.553028E+3,	63.887160E-9
1.553032E+3,	68.550464E-9
1.553036E+3,	72.555000E-9
1.553040E+3,	75.786951E-9
1.553044E+3,	77.378984E-9
1.553048E+3,	77.439230E-9
1.553052E+3,	76.129097E-9
1.553056E+3,	72.724844E-9
1.553060E+3,	68.197103E-9
1.553064E+3,	63.663435E-9
1.553068E+3,	57.993616E-9
1.553072E+3,	50.809422E-9
1.553076E+3,	43.866724E-9
1.553080E+3,	37.875652E-9
1.553084E+3,	31.464376E-9
1.553088E+3,	25.178658E-9
1.553092E+3,	20.593573E-9
1.553096E+3,	17.643089E-9
1.553100E+3,	15.377235E-9
1.553104E+3,	14.378552E-9
1.553108E+3,	14.994341E-9
1.553112E+3,	16.714292E-9
1.553116E+3,	19.700363E-9
1.553120E+3,	24.520325E-9
1.553124E+3,	29.800298E-9
1.553128E+3,	34.733873E-9
1.553132E+3,	40.381271E-9
1.553136E+3,	46.927770E-9
1.553140E+3,	52.620438E-9
1.553144E+3,	56.678830E-9
1.553148E+3,	60.221206E-9
1.553152E+3,	62.983823E-9
1.553156E+3,	64.356419E-9
1.553160E+3,	64.379719E-9
1.553164E+3,	63.289905E-9
1.553168E+3,	60.575547E-9
1.553172E+3,	57.114881E-9
1.553176E+3,	53.467097E-9
1.553180E+3,	48.773189E-9
1.553184E+3,	42.621300E-9
1.553188E+3,	36.648311E-9
1.553192E+3,	31.868546E-9
1.553196E+3,	26.960092E-9
1.553200E+3,	21.804756E-9
1.553204E+3,	17.615114E-9
1.553208E+3,	14.875038E-9
1.553212E+3,	12.781954E-9
1.553216E+3,	11.611300E-9
1.553220E+3,	11.826364E-9
1.553224E+3,	12.947519E-9
1.553228E+3,	15.059831E-9
1.553232E+3,	18.730944E-9
1.553236E+3,	22.779515E-9
1.553240E+3,	26.535535E-9
1.553244E+3,	30.915073E-9
1.553248E+3,	36.056324E-9
1.553252E+3,	40.129383E-9
1.553256E+3,	42.973905E-9
1.553260E+3,	45.661820E-9
1.553264E+3,	47.878562E-9
1.553268E+3,	48.783351E-9
1.553272E+3,	48.598126E-9
1.553276E+3,	47.612650E-9
1.553280E+3,	45.466770E-9
1.553284E+3,	42.729013E-9
1.553288E+3,	39.847003E-9
1.553292E+3,	36.133978E-9
1.553296E+3,	31.319193E-9
1.553300E+3,	26.933811E-9
1.553304E+3,	23.382575E-9
1.553308E+3,	19.904872E-9
1.553312E+3,	16.095459E-9
1.553316E+3,	13.034508E-9
1.553320E+3,	11.142739E-9
1.553324E+3,	9.741590E-9
1.553328E+3,	9.029647E-9
1.553332E+3,	9.187385E-9
1.553336E+3,	9.900261E-9
1.553340E+3,	11.310703E-9
1.553344E+3,	13.859393E-9
1.553348E+3,	16.635939E-9
1.553352E+3,	19.094310E-9
1.553356E+3,	21.914907E-9
1.553360E+3,	25.356905E-9
1.553364E+3,	28.278407E-9
1.553368E+3,	30.330357E-9
1.553372E+3,	32.145612E-9
1.553376E+3,	33.608869E-9
1.553380E+3,	34.138545E-9
1.553384E+3,	33.910683E-9
1.553388E+3,	33.083472E-9
1.553392E+3,	31.435873E-9
1.553396E+3,	29.265473E-9
1.553400E+3,	27.091557E-9
1.553404E+3,	24.509679E-9
1.553408E+3,	21.323196E-9
1.553412E+3,	18.363398E-9
1.553416E+3,	16.032260E-9
1.553420E+3,	13.652108E-9
1.553424E+3,	11.039085E-9
1.553428E+3,	9.097553E-9
1.553432E+3,	7.900590E-9
1.553436E+3,	7.046617E-9
1.553440E+3,	6.601467E-9
1.553444E+3,	6.697050E-9
1.553448E+3,	7.143581E-9
1.553452E+3,	8.060497E-9
1.553456E+3,	9.541749E-9
1.553460E+3,	11.101214E-9
1.553464E+3,	12.477509E-9
1.553468E+3,	14.474400E-9
1.553472E+3,	16.334235E-9
1.553476E+3,	17.791270E-9
1.553480E+3,	19.277245E-9
1.553484E+3,	20.553678E-9
1.553488E+3,	21.346670E-9
1.553492E+3,	21.648718E-9
1.553496E+3,	21.606737E-9
1.553500E+3,	21.042602E-9
1.553504E+3,	20.071394E-9
1.553508E+3,	18.940466E-9
1.553512E+3,	17.482053E-9
1.553516E+3,	15.532921E-9
1.553520E+3,	13.713146E-9
1.553524E+3,	12.224046E-9
1.553528E+3,	10.553843E-9
1.553532E+3,	8.691897E-9
1.553536E+3,	7.232226E-9
1.553540E+3,	6.274196E-9
1.553544E+3,	5.488476E-9
1.553548E+3,	4.884090E-9
1.553552E+3,	4.606721E-9
1.553556E+3,	4.647462E-9
1.553560E+3,	4.916901E-9
1.553564E+3,	5.517418E-9
1.553568E+3,	6.230816E-9
1.553572E+3,	6.927864E-9
1.553576E+3,	7.792099E-9
1.553580E+3,	8.937859E-9
1.553584E+3,	9.974798E-9
1.553588E+3,	10.765525E-9
1.553592E+3,	11.536671E-9
1.553596E+3,	12.268304E-9
1.553600E+3,	12.737624E-9
1.553604E+3,	12.933891E-9
1.553608E+3,	12.925343E-9
1.553612E+3,	12.593938E-9
1.553616E+3,	12.013705E-9
1.553620E+3,	11.349060E-9
1.553624E+3,	10.502317E-9
1.553628E+3,	9.371822E-9
1.553632E+3,	8.314052E-9
1.553636E+3,	7.377797E-9
1.553640E+3,	6.423885E-9
1.553644E+3,	5.369931E-9
1.553648E+3,	4.547290E-9
1.553652E+3,	3.995969E-9
1.553656E+3,	3.486911E-9
1.553660E+3,	3.033220E-9
1.553664E+3,	2.829240E-9
1.553668E+3,	2.790159E-9
1.553672E+3,	2.914832E-9
1.553676E+3,	3.169956E-9
1.553680E+3,	3.530913E-9
1.553684E+3,	3.884738E-9
1.553688E+3,	4.354096E-9
1.553692E+3,	4.963642E-9
1.553696E+3,	5.493815E-9
1.553700E+3,	5.899684E-9
1.553704E+3,	6.301507E-9
1.553708E+3,	6.645445E-9
1.553712E+3,	6.896568E-9
1.553716E+3,	7.033731E-9
1.553720E+3,	7.039665E-9
1.553724E+3,	6.884107E-9
1.553728E+3,	6.628720E-9
1.553732E+3,	6.348309E-9
1.553736E+3,	5.924945E-9
1.553740E+3,	5.312135E-9
1.553744E+3,	4.711961E-9
1.553748E+3,	4.225311E-9
1.553752E+3,	3.679044E-9
1.553756E+3,	3.098544E-9
1.553760E+3,	2.628819E-9
1.553764E+3,	2.269126E-9
1.553768E+3,	1.954428E-9
1.553772E+3,	1.678270E-9
1.553776E+3,	1.529448E-9
1.553780E+3,	1.496659E-9
1.553784E+3,	1.510048E-9
1.553788E+3,	1.636859E-9
1.553792E+3,	1.811478E-9
1.553796E+3,	2.000297E-9
1.553800E+3,	2.231807E-9
1.553804E+3,	2.503146E-9
1.553808E+3,	2.749913E-9
1.553812E+3,	2.951052E-9
1.553816E+3,	3.140110E-9
1.553820E+3,	3.332506E-9
1.553824E+3,	3.456396E-9
1.553828E+3,	3.494481E-9
1.553832E+3,	3.503409E-9
1.553836E+3,	3.429314E-9
1.553840E+3,	3.307907E-9
1.553844E+3,	3.141999E-9
1.553848E+3,	2.926158E-9
1.553852E+3,	2.596759E-9
1.553856E+3,	2.325126E-9
1.553860E+3,	2.037989E-9
1.553864E+3,	1.772377E-9
1.553868E+3,	1.492120E-9
1.553872E+3,	1.257134E-9
1.553876E+3,	1.088446E-9
1.553880E+3,	939.694869E-12
1.553884E+3,	820.781784E-12
1.553888E+3,	773.467508E-12
1.553892E+3,	745.572138E-12
1.553896E+3,	744.416047E-12
1.553900E+3,	807.700646E-12
1.553904E+3,	926.474325E-12
1.553908E+3,	979.045567E-12
1.553912E+3,	1.079238E-9
1.553916E+3,	1.208672E-9
1.553920E+3,	1.325895E-9
1.553924E+3,	1.397101E-9
1.553928E+3,	1.501369E-9
1.553932E+3,	1.563829E-9
1.553936E+3,	1.566636E-9
1.553940E+3,	1.603210E-9
1.553944E+3,	1.577680E-9
1.553948E+3,	1.513087E-9
1.553952E+3,	1.448110E-9
1.553956E+3,	1.378873E-9
1.553960E+3,	1.250916E-9
1.553964E+3,	1.115692E-9
1.553968E+3,	1.003297E-9
1.553972E+3,	886.949873E-12
1.553976E+3,	768.386565E-12
1.553980E+3,	643.335879E-12
1.553984E+3,	554.596977E-12
1.553988E+3,	502.543486E-12
1.553992E+3,	417.183294E-12
1.553996E+3,	355.516839E-12
1.554000E+3,	371.029218E-12
1.554004E+3,	359.546666E-12
1.554008E+3,	359.573966E-12
1.554012E+3,	382.410002E-12
1.554016E+3,	418.620509E-12
1.554020E+3,	464.346877E-12
1.554024E+3,	492.515383E-12
1.554028E+3,	566.998702E-12
1.554032E+3,	602.619659E-12
1.554036E+3,	628.624712E-12
1.554040E+3,	678.848457E-12
1.554044E+3,	680.406195E-12
1.554048E+3,	716.572410E-12
1.554052E+3,	698.589055E-12
1.554056E+3,	690.848396E-12
1.554060E+3,	687.963087E-12
1.554064E+3,	641.765680E-12
1.554068E+3,	630.289617E-12
1.554072E+3,	561.905050E-12
1.554076E+3,	514.128895E-12
1.554080E+3,	460.263865E-12
1.554084E+3,	393.630802E-12
1.554088E+3,	341.826099E-12
1.554092E+3,	278.839068E-12
1.554096E+3,	252.883624E-12
1.554100E+3,	196.139704E-12
1.554104E+3,	191.268155E-12
1.554108E+3,	185.776638E-12
1.554112E+3,	149.784717E-12
1.554116E+3,	161.295954E-12
1.554120E+3,	160.383917E-12
1.554124E+3,	182.578001E-12
1.554128E+3,	178.248912E-12
1.554132E+3,	187.949537E-12
1.554136E+3,	223.782173E-12
1.554140E+3,	224.547744E-12
1.554144E+3,	237.120428E-12
1.554148E+3,	268.441460E-12
1.554152E+3,	282.769075E-12
1.554156E+3,	310.793215E-12
1.554160E+3,	328.692071E-12
1.554164E+3,	323.308981E-12
1.554168E+3,	315.876836E-12
1.554172E+3,	299.714847E-12
1.554176E+3,	301.922539E-12
1.554180E+3,	257.764809E-12
1.554184E+3,	271.890273E-12
1.554188E+3,	251.961212E-12
1.554192E+3,	205.116574E-12
1.554196E+3,	195.311116E-12
1.554200E+3,	154.495549E-12
1.554204E+3,	129.174622E-12
1.554208E+3,	127.485973E-12
1.554212E+3,	88.496408E-12
1.554216E+3,	101.615177E-12
1.554220E+3,	78.167774E-12
1.554224E+3,	71.389420E-12
1.554228E+3,	87.671992E-12
1.554232E+3,	62.504528E-12
1.554236E+3,	57.342083E-12
1.554240E+3,	54.793893E-12
1.554244E+3,	74.065523E-12
1.554248E+3,	81.475627E-12
1.554252E+3,	78.626043E-12
1.554256E+3,	97.038415E-12
1.554260E+3,	103.741052E-12
1.554264E+3,	118.988078E-12
1.554268E+3,	127.162685E-12
1.554272E+3,	115.673497E-12
1.554276E+3,	127.546991E-12
1.554280E+3,	115.919995E-12
1.554284E+3,	112.005684E-12
1.554288E+3,	116.312785E-12
1.554292E+3,	117.603612E-12
1.554296E+3,	127.199771E-12
1.554300E+3,	110.186299E-12
1.554304E+3,	122.365036E-12
1.554308E+3,	75.668261E-12
1.554312E+3,	96.573175E-12
1.554316E+3,	67.929133E-12
1.554320E+3,	40.373225E-12
1.554324E+3,	31.668946E-12
1.554328E+3,	51.303572E-12
1.554332E+3,	38.088096E-12
1.554336E+3,	33.928543E-12
1.554340E+3,	37.077920E-12
1.554344E+3,	36.156878E-12
1.554348E+3,	18.553080E-12
1.554352E+3,	35.837922E-12
1.554356E+3,	4.038599E-12
1.554360E+3,	31.280328E-12
1.554364E+3,	22.550695E-12
1.554368E+3,	44.171554E-12
1.554372E+3,	59.665804E-12
1.554376E+3,	16.792854E-12
1.554380E+3,	56.187629E-12
1.554384E+3,	50.228759E-12
1.554388E+3,	44.368909E-12
1.554392E+3,	36.154959E-12
1.554396E+3,	47.654718E-12
1.554400E+3,	55.262940E-12
1.554404E+3,	53.765887E-12
1.554408E+3,	51.073057E-12
1.554412E+3,	18.375851E-12
1.554416E+3,	34.359457E-12
1.554420E+3,	37.245191E-12
1.554424E+3,	51.576889E-12
1.554428E+3,	39.053120E-12
1.554432E+3,	28.451652E-12
1.554436E+3,	20.669412E-12
1.554440E+3,	3.755859E-12
1.554444E+3,	5.837070E-12
1.554448E+3,	25.505528E-12
1.554452E+3,	31.551169E-12
1.554456E+3,	27.188061E-12
1.554460E+3,	28.507406E-12
1.554464E+3,	16.489063E-12
1.554468E+3,	15.612304E-12
1.554472E+3,	28.997214E-12
1.554476E+3,	448.323286E-15
1.554480E+3,	3.779683E-12
1.554484E+3,	6.741327E-12
1.554488E+3,	36.171613E-12
1.554492E+3,	19.667878E-12
1.554496E+3,	11.108181E-12
1.554500E+3,	41.728980E-12
