YOKOGAWA AQ6370D - S/N: 91S206859
#Date: 20/10/2023 Time: 12:59:36,	
A_WL(nm),	A_I(mW)
1.547500E+3,	955.829460E-15
1.547504E+3,	0.000000E+0
1.547508E+3,	5.114855E-12
1.547512E+3,	0.000000E+0
1.547516E+3,	0.000000E+0
1.547520E+3,	4.262744E-12
1.547524E+3,	15.539609E-12
1.547528E+3,	6.977895E-12
1.547532E+3,	564.221206E-15
1.547536E+3,	2.548634E-12
1.547540E+3,	9.397162E-12
1.547544E+3,	0.000000E+0
1.547548E+3,	5.060464E-12
1.547552E+3,	8.722725E-12
1.547556E+3,	0.000000E+0
1.547560E+3,	14.980441E-12
1.547564E+3,	0.000000E+0
1.547568E+3,	0.000000E+0
1.547572E+3,	3.392504E-12
1.547576E+3,	0.000000E+0
1.547580E+3,	3.071888E-12
1.547584E+3,	20.670404E-12
1.547588E+3,	1.452593E-12
1.547592E+3,	6.510866E-12
1.547596E+3,	7.103823E-12
1.547600E+3,	0.000000E+0
1.547604E+3,	28.037643E-12
1.547608E+3,	13.890801E-12
1.547612E+3,	0.000000E+0
1.547616E+3,	9.090715E-12
1.547620E+3,	281.458347E-15
1.547624E+3,	15.398112E-12
1.547628E+3,	1.271586E-12
1.547632E+3,	0.000000E+0
1.547636E+3,	10.996842E-12
1.547640E+3,	13.380448E-12
1.547644E+3,	7.799891E-12
1.547648E+3,	1.724940E-12
1.547652E+3,	10.302410E-12
1.547656E+3,	0.000000E+0
1.547660E+3,	0.000000E+0
1.547664E+3,	0.000000E+0
1.547668E+3,	11.462998E-12
1.547672E+3,	6.149681E-12
1.547676E+3,	12.417709E-12
1.547680E+3,	0.000000E+0
1.547684E+3,	7.092659E-12
1.547688E+3,	0.000000E+0
1.547692E+3,	16.171356E-12
1.547696E+3,	2.074435E-12
1.547700E+3,	16.428135E-12
1.547704E+3,	0.000000E+0
1.547708E+3,	4.789617E-12
1.547712E+3,	0.000000E+0
1.547716E+3,	0.000000E+0
1.547720E+3,	35.012090E-12
1.547724E+3,	2.432734E-12
1.547728E+3,	0.000000E+0
1.547732E+3,	8.400254E-12
1.547736E+3,	17.042646E-12
1.547740E+3,	11.963010E-12
1.547744E+3,	17.832200E-12
1.547748E+3,	3.448481E-12
1.547752E+3,	6.042267E-12
1.547756E+3,	22.753031E-12
1.547760E+3,	13.383529E-12
1.547764E+3,	14.803096E-12
1.547768E+3,	7.239399E-12
1.547772E+3,	0.000000E+0
1.547776E+3,	0.000000E+0
1.547780E+3,	9.815043E-12
1.547784E+3,	0.000000E+0
1.547788E+3,	0.000000E+0
1.547792E+3,	0.000000E+0
1.547796E+3,	9.660044E-12
1.547800E+3,	0.000000E+0
1.547804E+3,	9.035096E-12
1.547808E+3,	183.576259E-15
1.547812E+3,	0.000000E+0
1.547816E+3,	1.896051E-12
1.547820E+3,	9.603112E-12
1.547824E+3,	3.558130E-12
1.547828E+3,	0.000000E+0
1.547832E+3,	0.000000E+0
1.547836E+3,	0.000000E+0
1.547840E+3,	16.778311E-12
1.547844E+3,	8.583613E-12
1.547848E+3,	3.503702E-12
1.547852E+3,	5.032030E-12
1.547856E+3,	1.191355E-12
1.547860E+3,	0.000000E+0
1.547864E+3,	0.000000E+0
1.547868E+3,	14.679505E-12
1.547872E+3,	0.000000E+0
1.547876E+3,	623.987488E-15
1.547880E+3,	10.905857E-12
1.547884E+3,	0.000000E+0
1.547888E+3,	17.201320E-12
1.547892E+3,	0.000000E+0
1.547896E+3,	16.892894E-12
1.547900E+3,	2.569840E-12
1.547904E+3,	8.638042E-12
1.547908E+3,	4.011694E-12
1.547912E+3,	9.762878E-12
1.547916E+3,	0.000000E+0
1.547920E+3,	21.545026E-12
1.547924E+3,	3.666986E-12
1.547928E+3,	0.000000E+0
1.547932E+3,	13.282530E-12
1.547936E+3,	37.776183E-12
1.547940E+3,	0.000000E+0
1.547944E+3,	10.085234E-12
1.547948E+3,	20.072459E-12
1.547952E+3,	4.829220E-12
1.547956E+3,	5.467655E-12
1.547960E+3,	4.484432E-12
1.547964E+3,	9.874006E-12
1.547968E+3,	5.065126E-12
1.547972E+3,	15.553928E-12
1.547976E+3,	6.072803E-12
1.547980E+3,	5.000181E-12
1.547984E+3,	0.000000E+0
1.547988E+3,	0.000000E+0
1.547992E+3,	5.754702E-12
1.547996E+3,	7.571510E-12
1.548000E+3,	5.825380E-12
1.548004E+3,	0.000000E+0
1.548008E+3,	29.055082E-12
1.548012E+3,	0.000000E+0
1.548016E+3,	0.000000E+0
1.548020E+3,	0.000000E+0
1.548024E+3,	0.000000E+0
1.548028E+3,	0.000000E+0
1.548032E+3,	20.948327E-12
1.548036E+3,	267.857652E-15
1.548040E+3,	2.089547E-12
1.548044E+3,	1.290907E-12
1.548048E+3,	0.000000E+0
1.548052E+3,	0.000000E+0
1.548056E+3,	1.906128E-12
1.548060E+3,	8.569416E-12
1.548064E+3,	0.000000E+0
1.548068E+3,	19.210264E-12
1.548072E+3,	5.562986E-12
1.548076E+3,	9.107442E-12
1.548080E+3,	0.000000E+0
1.548084E+3,	3.306418E-12
1.548088E+3,	2.108183E-12
1.548092E+3,	3.961068E-12
1.548096E+3,	11.079656E-12
1.548100E+3,	0.000000E+0
1.548104E+3,	10.223501E-12
1.548108E+3,	573.716149E-15
1.548112E+3,	1.759936E-12
1.548116E+3,	0.000000E+0
1.548120E+3,	0.000000E+0
1.548124E+3,	13.294770E-12
1.548128E+3,	0.000000E+0
1.548132E+3,	3.872253E-12
1.548136E+3,	0.000000E+0
1.548140E+3,	0.000000E+0
1.548144E+3,	12.368648E-12
1.548148E+3,	14.024345E-12
1.548152E+3,	4.866009E-12
1.548156E+3,	2.453695E-12
1.548160E+3,	0.000000E+0
1.548164E+3,	23.191566E-12
1.548168E+3,	19.254211E-12
1.548172E+3,	0.000000E+0
1.548176E+3,	13.679263E-12
1.548180E+3,	9.792288E-12
1.548184E+3,	23.451193E-12
1.548188E+3,	15.412270E-12
1.548192E+3,	9.295183E-12
1.548196E+3,	11.481487E-12
1.548200E+3,	0.000000E+0
1.548204E+3,	0.000000E+0
1.548208E+3,	14.362870E-12
1.548212E+3,	21.663909E-12
1.548216E+3,	0.000000E+0
1.548220E+3,	0.000000E+0
1.548224E+3,	14.660089E-12
1.548228E+3,	25.277630E-12
1.548232E+3,	18.132525E-12
1.548236E+3,	0.000000E+0
1.548240E+3,	25.545869E-12
1.548244E+3,	0.000000E+0
1.548248E+3,	0.000000E+0
1.548252E+3,	10.775595E-12
1.548256E+3,	15.117655E-12
1.548260E+3,	12.192668E-12
1.548264E+3,	23.405294E-12
1.548268E+3,	27.197212E-12
1.548272E+3,	19.913910E-12
1.548276E+3,	16.044203E-12
1.548280E+3,	23.880674E-12
1.548284E+3,	40.682259E-12
1.548288E+3,	51.461112E-12
1.548292E+3,	37.854059E-12
1.548296E+3,	60.078163E-12
1.548300E+3,	38.871686E-12
1.548304E+3,	40.496455E-12
1.548308E+3,	45.635423E-12
1.548312E+3,	64.330376E-12
1.548316E+3,	44.450426E-12
1.548320E+3,	39.362324E-12
1.548324E+3,	51.527813E-12
1.548328E+3,	50.639363E-12
1.548332E+3,	21.177225E-12
1.548336E+3,	33.791357E-12
1.548340E+3,	43.479163E-12
1.548344E+3,	18.899880E-12
1.548348E+3,	12.814356E-12
1.548352E+3,	36.790395E-12
1.548356E+3,	42.861178E-12
1.548360E+3,	23.634189E-12
1.548364E+3,	31.939322E-12
1.548368E+3,	37.735546E-12
1.548372E+3,	79.077200E-12
1.548376E+3,	86.610779E-12
1.548380E+3,	110.328782E-12
1.548384E+3,	140.756754E-12
1.548388E+3,	159.424156E-12
1.548392E+3,	175.240868E-12
1.548396E+3,	231.635809E-12
1.548400E+3,	255.225067E-12
1.548404E+3,	281.615968E-12
1.548408E+3,	284.049230E-12
1.548412E+3,	323.554750E-12
1.548416E+3,	325.754542E-12
1.548420E+3,	338.473190E-12
1.548424E+3,	340.726425E-12
1.548428E+3,	316.573556E-12
1.548432E+3,	318.064329E-12
1.548436E+3,	300.335115E-12
1.548440E+3,	266.476827E-12
1.548444E+3,	218.973474E-12
1.548448E+3,	218.214521E-12
1.548452E+3,	156.744851E-12
1.548456E+3,	125.971876E-12
1.548460E+3,	114.669135E-12
1.548464E+3,	117.109484E-12
1.548468E+3,	126.619912E-12
1.548472E+3,	122.455667E-12
1.548476E+3,	191.771240E-12
1.548480E+3,	232.732328E-12
1.548484E+3,	307.972559E-12
1.548488E+3,	358.061903E-12
1.548492E+3,	471.303826E-12
1.548496E+3,	587.191652E-12
1.548500E+3,	724.680870E-12
1.548504E+3,	839.385597E-12
1.548508E+3,	937.894585E-12
1.548512E+3,	1.030365E-9
1.548516E+3,	1.158886E-9
1.548520E+3,	1.222457E-9
1.548524E+3,	1.277929E-9
1.548528E+3,	1.328457E-9
1.548532E+3,	1.321221E-9
1.548536E+3,	1.305585E-9
1.548540E+3,	1.257824E-9
1.548544E+3,	1.204452E-9
1.548548E+3,	1.102573E-9
1.548552E+3,	962.961780E-12
1.548556E+3,	825.657861E-12
1.548560E+3,	744.048737E-12
1.548564E+3,	617.954921E-12
1.548568E+3,	524.626168E-12
1.548572E+3,	424.324286E-12
1.548576E+3,	392.805433E-12
1.548580E+3,	414.869365E-12
1.548584E+3,	463.571294E-12
1.548588E+3,	583.024830E-12
1.548592E+3,	788.123243E-12
1.548596E+3,	1.034079E-9
1.548600E+3,	1.284141E-9
1.548604E+3,	1.629264E-9
1.548608E+3,	1.980010E-9
1.548612E+3,	2.450074E-9
1.548616E+3,	2.875225E-9
1.548620E+3,	3.191197E-9
1.548624E+3,	3.488271E-9
1.548628E+3,	3.768586E-9
1.548632E+3,	4.008039E-9
1.548636E+3,	4.163790E-9
1.548640E+3,	4.225910E-9
1.548644E+3,	4.202983E-9
1.548648E+3,	4.106918E-9
1.548652E+3,	3.924983E-9
1.548656E+3,	3.705458E-9
1.548660E+3,	3.404066E-9
1.548664E+3,	3.032435E-9
1.548668E+3,	2.595048E-9
1.548672E+3,	2.172389E-9
1.548676E+3,	1.857772E-9
1.548680E+3,	1.542474E-9
1.548684E+3,	1.327573E-9
1.548688E+3,	1.136252E-9
1.548692E+3,	1.126005E-9
1.548696E+3,	1.268220E-9
1.548700E+3,	1.536020E-9
1.548704E+3,	1.960247E-9
1.548708E+3,	2.682036E-9
1.548712E+3,	3.474082E-9
1.548716E+3,	4.284928E-9
1.548720E+3,	5.229422E-9
1.548724E+3,	6.202532E-9
1.548728E+3,	7.376066E-9
1.548732E+3,	8.385618E-9
1.548736E+3,	9.148042E-9
1.548740E+3,	9.854809E-9
1.548744E+3,	10.561397E-9
1.548748E+3,	10.956372E-9
1.548752E+3,	11.076386E-9
1.548756E+3,	11.024217E-9
1.548760E+3,	10.707006E-9
1.548764E+3,	10.085104E-9
1.548768E+3,	9.318682E-9
1.548772E+3,	8.499231E-9
1.548776E+3,	7.527173E-9
1.548780E+3,	6.525485E-9
1.548784E+3,	5.426064E-9
1.548788E+3,	4.458126E-9
1.548792E+3,	3.783171E-9
1.548796E+3,	3.149379E-9
1.548800E+3,	2.752295E-9
1.548804E+3,	2.678675E-9
1.548808E+3,	2.954464E-9
1.548812E+3,	3.495337E-9
1.548816E+3,	4.401979E-9
1.548820E+3,	5.637360E-9
1.548824E+3,	7.635149E-9
1.548828E+3,	9.803510E-9
1.548832E+3,	11.598244E-9
1.548836E+3,	13.627505E-9
1.548840E+3,	15.767634E-9
1.548844E+3,	18.221811E-9
1.548848E+3,	20.247596E-9
1.548852E+3,	21.667788E-9
1.548856E+3,	22.815267E-9
1.548860E+3,	23.590029E-9
1.548864E+3,	23.752324E-9
1.548868E+3,	23.480884E-9
1.548872E+3,	22.742252E-9
1.548876E+3,	21.516990E-9
1.548880E+3,	19.579250E-9
1.548884E+3,	17.633462E-9
1.548888E+3,	15.795118E-9
1.548892E+3,	13.678136E-9
1.548896E+3,	11.651780E-9
1.548900E+3,	9.310987E-9
1.548904E+3,	7.418665E-9
1.548908E+3,	6.257500E-9
1.548912E+3,	5.489860E-9
1.548916E+3,	5.278120E-9
1.548920E+3,	5.840736E-9
1.548924E+3,	7.080813E-9
1.548928E+3,	8.732661E-9
1.548932E+3,	11.246108E-9
1.548936E+3,	14.239067E-9
1.548940E+3,	18.258799E-9
1.548944E+3,	22.180244E-9
1.548948E+3,	25.522489E-9
1.548952E+3,	29.380756E-9
1.548956E+3,	33.868610E-9
1.548960E+3,	37.440706E-9
1.548964E+3,	39.717175E-9
1.548968E+3,	41.539799E-9
1.548972E+3,	42.679669E-9
1.548976E+3,	42.971989E-9
1.548980E+3,	42.210187E-9
1.548984E+3,	40.686913E-9
1.548988E+3,	38.447730E-9
1.548992E+3,	35.760225E-9
1.548996E+3,	31.796730E-9
1.549000E+3,	27.665173E-9
1.549004E+3,	24.140854E-9
1.549008E+3,	20.342253E-9
1.549012E+3,	16.955714E-9
1.549016E+3,	13.398618E-9
1.549020E+3,	10.819351E-9
1.549024E+3,	9.480160E-9
1.549028E+3,	8.859887E-9
1.549032E+3,	9.403182E-9
1.549036E+3,	11.099209E-9
1.549040E+3,	13.414170E-9
1.549044E+3,	16.811582E-9
1.549048E+3,	20.950205E-9
1.549052E+3,	26.787994E-9
1.549056E+3,	32.823429E-9
1.549060E+3,	38.341593E-9
1.549064E+3,	44.401834E-9
1.549068E+3,	51.437521E-9
1.549072E+3,	57.286557E-9
1.549076E+3,	61.239928E-9
1.549080E+3,	64.682274E-9
1.549084E+3,	67.041687E-9
1.549088E+3,	68.108619E-9
1.549092E+3,	67.399313E-9
1.549096E+3,	65.585641E-9
1.549100E+3,	62.442823E-9
1.549104E+3,	58.369620E-9
1.549108E+3,	52.360828E-9
1.549112E+3,	46.051072E-9
1.549116E+3,	40.515026E-9
1.549120E+3,	34.341998E-9
1.549124E+3,	27.622876E-9
1.549128E+3,	22.418948E-9
1.549132E+3,	18.863848E-9
1.549136E+3,	15.770865E-9
1.549140E+3,	13.773618E-9
1.549144E+3,	13.312048E-9
1.549148E+3,	14.736672E-9
1.549152E+3,	17.382508E-9
1.549156E+3,	21.560024E-9
1.549160E+3,	27.008381E-9
1.549164E+3,	35.068234E-9
1.549168E+3,	44.005448E-9
1.549172E+3,	52.124877E-9
1.549176E+3,	60.893121E-9
1.549180E+3,	70.900403E-9
1.549184E+3,	79.556440E-9
1.549188E+3,	85.459119E-9
1.549192E+3,	90.962191E-9
1.549196E+3,	95.078302E-9
1.549200E+3,	97.397074E-9
1.549204E+3,	97.205655E-9
1.549208E+3,	95.294372E-9
1.549212E+3,	91.489766E-9
1.549216E+3,	84.279470E-9
1.549220E+3,	75.823511E-9
1.549224E+3,	68.229150E-9
1.549228E+3,	59.580897E-9
1.549232E+3,	50.789782E-9
1.549236E+3,	40.621691E-9
1.549240E+3,	32.106690E-9
1.549244E+3,	26.304208E-9
1.549248E+3,	21.600293E-9
1.549252E+3,	18.828456E-9
1.549256E+3,	18.325840E-9
1.549260E+3,	20.298389E-9
1.549264E+3,	23.782719E-9
1.549268E+3,	29.231692E-9
1.549272E+3,	38.393826E-9
1.549276E+3,	48.808964E-9
1.549280E+3,	58.078850E-9
1.549284E+3,	68.800079E-9
1.549288E+3,	79.271061E-9
1.549292E+3,	91.706213E-9
1.549296E+3,	103.054189E-9
1.549300E+3,	111.491625E-9
1.549304E+3,	119.452453E-9
1.549308E+3,	125.108902E-9
1.549312E+3,	128.567467E-9
1.549316E+3,	128.694118E-9
1.549320E+3,	126.288928E-9
1.549324E+3,	121.122934E-9
1.549328E+3,	111.404836E-9
1.549332E+3,	100.010272E-9
1.549336E+3,	89.569602E-9
1.549340E+3,	77.420801E-9
1.549344E+3,	65.350415E-9
1.549348E+3,	52.206348E-9
1.549352E+3,	41.807023E-9
1.549356E+3,	34.471683E-9
1.549360E+3,	28.078084E-9
1.549364E+3,	24.058959E-9
1.549368E+3,	23.535278E-9
1.549372E+3,	25.298732E-9
1.549376E+3,	29.569485E-9
1.549380E+3,	36.585295E-9
1.549384E+3,	48.234767E-9
1.549388E+3,	60.862196E-9
1.549392E+3,	71.801964E-9
1.549396E+3,	84.776943E-9
1.549400E+3,	98.157266E-9
1.549404E+3,	113.722919E-9
1.549408E+3,	127.191435E-9
1.549412E+3,	136.574949E-9
1.549416E+3,	144.832224E-9
1.549420E+3,	151.109831E-9
1.549424E+3,	153.770836E-9
1.549428E+3,	153.075788E-9
1.549432E+3,	149.549613E-9
1.549436E+3,	143.077774E-9
1.549440E+3,	131.414855E-9
1.549444E+3,	118.349071E-9
1.549448E+3,	106.998215E-9
1.549452E+3,	93.584962E-9
1.549456E+3,	79.545021E-9
1.549460E+3,	62.768946E-9
1.549464E+3,	49.018166E-9
1.549468E+3,	40.049428E-9
1.549472E+3,	32.646673E-9
1.549476E+3,	27.598364E-9
1.549480E+3,	26.308322E-9
1.549484E+3,	28.228104E-9
1.549488E+3,	33.459494E-9
1.549492E+3,	41.768354E-9
1.549496E+3,	54.761650E-9
1.549500E+3,	68.420191E-9
1.549504E+3,	80.568937E-9
1.549508E+3,	94.717651E-9
1.549512E+3,	111.541337E-9
1.549516E+3,	126.857295E-9
1.549520E+3,	138.235627E-9
1.549524E+3,	148.451699E-9
1.549528E+3,	156.306405E-9
1.549532E+3,	163.577704E-9
1.549536E+3,	164.786401E-9
1.549540E+3,	162.974829E-9
1.549544E+3,	158.418889E-9
1.549548E+3,	151.091388E-9
1.549552E+3,	138.646125E-9
1.549556E+3,	125.001508E-9
1.549560E+3,	112.871670E-9
1.549564E+3,	99.054581E-9
1.549568E+3,	82.007570E-9
1.549572E+3,	66.597098E-9
1.549576E+3,	54.964405E-9
1.549580E+3,	43.600642E-9
1.549584E+3,	34.969678E-9
1.549588E+3,	28.626119E-9
1.549592E+3,	26.370215E-9
1.549596E+3,	27.586671E-9
1.549600E+3,	32.040929E-9
1.549604E+3,	39.667975E-9
1.549608E+3,	51.837973E-9
1.549612E+3,	65.311794E-9
1.549616E+3,	77.888336E-9
1.549620E+3,	92.263515E-9
1.549624E+3,	109.201000E-9
1.549628E+3,	124.012216E-9
1.549632E+3,	135.023018E-9
1.549636E+3,	145.633270E-9
1.549640E+3,	153.789855E-9
1.549644E+3,	159.542931E-9
1.549648E+3,	161.536184E-9
1.549652E+3,	160.462546E-9
1.549656E+3,	156.531758E-9
1.549660E+3,	149.455059E-9
1.549664E+3,	136.926780E-9
1.549668E+3,	123.752787E-9
1.549672E+3,	112.007879E-9
1.549676E+3,	97.799041E-9
1.549680E+3,	80.264519E-9
1.549684E+3,	64.553963E-9
1.549688E+3,	52.910748E-9
1.549692E+3,	41.966951E-9
1.549696E+3,	33.668963E-9
1.549700E+3,	27.721921E-9
1.549704E+3,	25.352807E-9
1.549708E+3,	26.137727E-9
1.549712E+3,	29.637930E-9
1.549716E+3,	37.722935E-9
1.549720E+3,	48.205093E-9
1.549724E+3,	58.249532E-9
1.549728E+3,	70.255617E-9
1.549732E+3,	82.981020E-9
1.549736E+3,	99.831567E-9
1.549740E+3,	114.713568E-9
1.549744E+3,	125.407014E-9
1.549748E+3,	135.735698E-9
1.549752E+3,	144.010463E-9
1.549756E+3,	151.106112E-9
1.549760E+3,	154.289605E-9
1.549764E+3,	154.089588E-9
1.549768E+3,	150.980607E-9
1.549772E+3,	143.293136E-9
1.549776E+3,	133.902669E-9
1.549780E+3,	124.374060E-9
1.549784E+3,	112.108297E-9
1.549788E+3,	98.926649E-9
1.549792E+3,	82.316375E-9
1.549796E+3,	67.100069E-9
1.549800E+3,	55.671688E-9
1.549804E+3,	45.378856E-9
1.549808E+3,	37.080753E-9
1.549812E+3,	29.642266E-9
1.549816E+3,	25.451233E-9
1.549820E+3,	24.609392E-9
1.549824E+3,	26.456673E-9
1.549828E+3,	32.310763E-9
1.549832E+3,	39.968146E-9
1.549836E+3,	47.882008E-9
1.549840E+3,	58.545820E-9
1.549844E+3,	71.134266E-9
1.549848E+3,	87.638477E-9
1.549852E+3,	102.291600E-9
1.549856E+3,	113.021845E-9
1.549860E+3,	124.373673E-9
1.549864E+3,	135.751591E-9
1.549868E+3,	143.522558E-9
1.549872E+3,	147.727683E-9
1.549876E+3,	149.845368E-9
1.549880E+3,	149.200582E-9
1.549884E+3,	144.929828E-9
1.549888E+3,	138.261917E-9
1.549892E+3,	130.586418E-9
1.549896E+3,	120.135279E-9
1.549900E+3,	107.872329E-9
1.549904E+3,	91.709267E-9
1.549908E+3,	76.938279E-9
1.549912E+3,	65.413804E-9
1.549916E+3,	53.657919E-9
1.549920E+3,	41.300787E-9
1.549924E+3,	32.236049E-9
1.549928E+3,	27.460591E-9
1.549932E+3,	24.840844E-9
1.549936E+3,	25.090239E-9
1.549940E+3,	29.034864E-9
1.549944E+3,	35.667482E-9
1.549948E+3,	43.713385E-9
1.549952E+3,	54.618827E-9
1.549956E+3,	66.690078E-9
1.549960E+3,	81.653009E-9
1.549964E+3,	95.979240E-9
1.549968E+3,	107.608262E-9
1.549972E+3,	119.653925E-9
1.549976E+3,	132.370901E-9
1.549980E+3,	141.533081E-9
1.549984E+3,	146.705541E-9
1.549988E+3,	150.061333E-9
1.549992E+3,	150.630846E-9
1.549996E+3,	147.492826E-9
1.550000E+3,	141.222453E-9
1.550004E+3,	133.641564E-9
1.550008E+3,	123.078600E-9
1.550012E+3,	107.844405E-9
1.550016E+3,	93.246578E-9
1.550020E+3,	81.318396E-9
1.550024E+3,	68.194423E-9
1.550028E+3,	55.502622E-9
1.550032E+3,	42.191187E-9
1.550036E+3,	32.814245E-9
1.550040E+3,	28.110230E-9
1.550044E+3,	25.327252E-9
1.550048E+3,	25.758101E-9
1.550052E+3,	29.162733E-9
1.550056E+3,	34.668221E-9
1.550060E+3,	43.044293E-9
1.550064E+3,	53.575296E-9
1.550068E+3,	68.124814E-9
1.550072E+3,	81.834165E-9
1.550076E+3,	93.149634E-9
1.550080E+3,	105.798860E-9
1.550084E+3,	121.041791E-9
1.550088E+3,	133.290938E-9
1.550092E+3,	140.718215E-9
1.550096E+3,	146.941427E-9
1.550100E+3,	150.738440E-9
1.550104E+3,	151.423563E-9
1.550108E+3,	148.452823E-9
1.550112E+3,	143.198783E-9
1.550116E+3,	134.936928E-9
1.550120E+3,	121.935897E-9
1.550124E+3,	108.268568E-9
1.550128E+3,	96.491211E-9
1.550132E+3,	82.484515E-9
1.550136E+3,	68.337689E-9
1.550140E+3,	53.099494E-9
1.550144E+3,	41.611512E-9
1.550148E+3,	34.357837E-9
1.550152E+3,	28.693784E-9
1.550156E+3,	25.531270E-9
1.550160E+3,	25.826189E-9
1.550164E+3,	28.978212E-9
1.550168E+3,	35.220469E-9
1.550172E+3,	45.566513E-9
1.550176E+3,	56.927417E-9
1.550180E+3,	67.442245E-9
1.550184E+3,	79.928061E-9
1.550188E+3,	92.930258E-9
1.550192E+3,	108.735808E-9
1.550196E+3,	122.720951E-9
1.550200E+3,	132.561686E-9
1.550204E+3,	141.007057E-9
1.550208E+3,	148.059835E-9
1.550212E+3,	151.806999E-9
1.550216E+3,	152.271737E-9
1.550220E+3,	149.933513E-9
1.550224E+3,	144.490572E-9
1.550228E+3,	134.710950E-9
1.550232E+3,	123.567881E-9
1.550236E+3,	112.715404E-9
1.550240E+3,	99.694516E-9
1.550244E+3,	82.658708E-9
1.550248E+3,	66.781651E-9
1.550252E+3,	55.044233E-9
1.550256E+3,	44.284345E-9
1.550260E+3,	35.609435E-9
1.550264E+3,	28.409071E-9
1.550268E+3,	25.135376E-9
1.550272E+3,	25.406947E-9
1.550276E+3,	28.662254E-9
1.550280E+3,	36.568865E-9
1.550284E+3,	46.126996E-9
1.550288E+3,	55.361353E-9
1.550292E+3,	66.932323E-9
1.550296E+3,	79.899702E-9
1.550300E+3,	96.315783E-9
1.550304E+3,	110.589509E-9
1.550308E+3,	121.058284E-9
1.550312E+3,	131.821852E-9
1.550316E+3,	142.478833E-9
1.550320E+3,	149.524873E-9
1.550324E+3,	152.987351E-9
1.550328E+3,	154.238052E-9
1.550332E+3,	152.489404E-9
1.550336E+3,	146.857746E-9
1.550340E+3,	138.637221E-9
1.550344E+3,	129.812470E-9
1.550348E+3,	118.375597E-9
1.550352E+3,	102.320433E-9
1.550356E+3,	86.342627E-9
1.550360E+3,	73.732125E-9
1.550364E+3,	60.977854E-9
1.550368E+3,	47.528204E-9
1.550372E+3,	37.311074E-9
1.550376E+3,	31.129532E-9
1.550380E+3,	27.159751E-9
1.550384E+3,	26.409813E-9
1.550388E+3,	29.645126E-9
1.550392E+3,	35.853728E-9
1.550396E+3,	43.193613E-9
1.550400E+3,	53.661488E-9
1.550404E+3,	68.048026E-9
1.550408E+3,	82.185664E-9
1.550412E+3,	94.318188E-9
1.550416E+3,	107.298341E-9
1.550420E+3,	119.159172E-9
1.550424E+3,	131.894489E-9
1.550428E+3,	142.257994E-9
1.550432E+3,	148.670246E-9
1.550436E+3,	153.252179E-9
1.550440E+3,	155.037157E-9
1.550444E+3,	153.617527E-9
1.550448E+3,	150.000472E-9
1.550452E+3,	143.519418E-9
1.550456E+3,	134.523792E-9
1.550460E+3,	120.381012E-9
1.550464E+3,	105.548116E-9
1.550468E+3,	93.088944E-9
1.550472E+3,	79.848665E-9
1.550476E+3,	64.599511E-9
1.550480E+3,	51.051385E-9
1.550484E+3,	41.537952E-9
1.550488E+3,	33.453737E-9
1.550492E+3,	28.430618E-9
1.550496E+3,	26.776965E-9
1.550500E+3,	28.685853E-9
1.550504E+3,	33.187670E-9
1.550508E+3,	40.729546E-9
1.550512E+3,	52.581263E-9
1.550516E+3,	65.725024E-9
1.550520E+3,	77.872664E-9
1.550524E+3,	91.384437E-9
1.550528E+3,	104.221660E-9
1.550532E+3,	118.616291E-9
1.550536E+3,	130.977751E-9
1.550540E+3,	139.979038E-9
1.550544E+3,	147.949142E-9
1.550548E+3,	154.144078E-9
1.550552E+3,	156.706959E-9
1.550556E+3,	156.240039E-9
1.550560E+3,	153.384857E-9
1.550564E+3,	147.974133E-9
1.550568E+3,	137.985665E-9
1.550572E+3,	126.622794E-9
1.550576E+3,	115.906659E-9
1.550580E+3,	102.530253E-9
1.550584E+3,	86.046368E-9
1.550588E+3,	70.905619E-9
1.550592E+3,	58.814047E-9
1.550596E+3,	46.999918E-9
1.550600E+3,	37.607124E-9
1.550604E+3,	29.865588E-9
1.550608E+3,	26.146018E-9
1.550612E+3,	26.076279E-9
1.550616E+3,	28.957447E-9
1.550620E+3,	36.592995E-9
1.550624E+3,	46.594631E-9
1.550628E+3,	56.336488E-9
1.550632E+3,	68.442056E-9
1.550636E+3,	84.177561E-9
1.550640E+3,	99.080438E-9
1.550644E+3,	111.246440E-9
1.550648E+3,	123.803262E-9
1.550652E+3,	134.420293E-9
1.550656E+3,	144.265413E-9
1.550660E+3,	151.013024E-9
1.550664E+3,	154.523873E-9
1.550668E+3,	156.188048E-9
1.550672E+3,	154.464341E-9
1.550676E+3,	149.688257E-9
1.550680E+3,	143.425328E-9
1.550684E+3,	134.596818E-9
1.550688E+3,	124.216557E-9
1.550692E+3,	109.910916E-9
1.550696E+3,	94.872218E-9
1.550700E+3,	81.693472E-9
1.550704E+3,	67.416745E-9
1.550708E+3,	52.778096E-9
1.550712E+3,	41.442425E-9
1.550716E+3,	34.123562E-9
1.550720E+3,	28.420324E-9
1.550724E+3,	25.923736E-9
1.550728E+3,	27.657738E-9
1.550732E+3,	32.951609E-9
1.550736E+3,	39.753242E-9
1.550740E+3,	49.561550E-9
1.550744E+3,	63.987061E-9
1.550748E+3,	78.507889E-9
1.550752E+3,	91.439393E-9
1.550756E+3,	105.649838E-9
1.550760E+3,	118.788858E-9
1.550764E+3,	132.379729E-9
1.550768E+3,	142.441997E-9
1.550772E+3,	148.959222E-9
1.550776E+3,	153.981420E-9
1.550780E+3,	156.079053E-9
1.550784E+3,	154.621707E-9
1.550788E+3,	150.921172E-9
1.550792E+3,	144.630992E-9
1.550796E+3,	135.948101E-9
1.550800E+3,	122.625716E-9
1.550804E+3,	108.949435E-9
1.550808E+3,	96.766518E-9
1.550812E+3,	83.204587E-9
1.550816E+3,	67.610944E-9
1.550820E+3,	53.923471E-9
1.550824E+3,	44.435104E-9
1.550828E+3,	35.696423E-9
1.550832E+3,	29.357469E-9
1.550836E+3,	25.982993E-9
1.550840E+3,	26.801811E-9
1.550844E+3,	30.283834E-9
1.550848E+3,	36.609187E-9
1.550852E+3,	48.410789E-9
1.550856E+3,	62.163562E-9
1.550860E+3,	75.056408E-9
1.550864E+3,	89.607252E-9
1.550868E+3,	106.436673E-9
1.550872E+3,	121.233995E-9
1.550876E+3,	132.124590E-9
1.550880E+3,	142.113700E-9
1.550884E+3,	149.792718E-9
1.550888E+3,	155.295444E-9
1.550892E+3,	157.006624E-9
1.550896E+3,	155.888371E-9
1.550900E+3,	152.407023E-9
1.550904E+3,	144.964446E-9
1.550908E+3,	135.654277E-9
1.550912E+3,	126.400816E-9
1.550916E+3,	114.193013E-9
1.550920E+3,	100.998477E-9
1.550924E+3,	85.630489E-9
1.550928E+3,	71.726801E-9
1.550932E+3,	60.630236E-9
1.550936E+3,	48.648199E-9
1.550940E+3,	37.167476E-9
1.550944E+3,	29.946364E-9
1.550948E+3,	26.797566E-9
1.550952E+3,	26.247452E-9
1.550956E+3,	29.004106E-9
1.550960E+3,	36.353944E-9
1.550964E+3,	46.717992E-9
1.550968E+3,	57.398401E-9
1.550972E+3,	70.423048E-9
1.550976E+3,	86.761578E-9
1.550980E+3,	101.741705E-9
1.550984E+3,	114.148787E-9
1.550988E+3,	127.031145E-9
1.550992E+3,	137.765721E-9
1.550996E+3,	147.665638E-9
1.551000E+3,	154.002514E-9
1.551004E+3,	156.639757E-9
1.551008E+3,	156.876118E-9
1.551012E+3,	153.338536E-9
1.551016E+3,	146.663258E-9
1.551020E+3,	138.796617E-9
1.551024E+3,	128.573451E-9
1.551028E+3,	114.116155E-9
1.551032E+3,	99.935800E-9
1.551036E+3,	88.198223E-9
1.551040E+3,	74.873828E-9
1.551044E+3,	61.921056E-9
1.551048E+3,	48.760228E-9
1.551052E+3,	38.972123E-9
1.551056E+3,	33.026849E-9
1.551060E+3,	28.771762E-9
1.551064E+3,	27.352232E-9
1.551068E+3,	29.601645E-9
1.551072E+3,	34.547634E-9
1.551076E+3,	42.610086E-9
1.551080E+3,	55.232246E-9
1.551084E+3,	68.569020E-9
1.551088E+3,	80.596623E-9
1.551092E+3,	94.744675E-9
1.551096E+3,	108.921064E-9
1.551100E+3,	125.763301E-9
1.551104E+3,	139.135209E-9
1.551108E+3,	147.042156E-9
1.551112E+3,	153.519232E-9
1.551116E+3,	157.911910E-9
1.551120E+3,	158.234368E-9
1.551124E+3,	155.554902E-9
1.551128E+3,	149.892703E-9
1.551132E+3,	139.591488E-9
1.551136E+3,	128.509301E-9
1.551140E+3,	117.986491E-9
1.551144E+3,	104.739570E-9
1.551148E+3,	88.774082E-9
1.551152E+3,	74.528925E-9
1.551156E+3,	63.485532E-9
1.551160E+3,	52.559544E-9
1.551164E+3,	43.313769E-9
1.551168E+3,	34.449127E-9
1.551172E+3,	29.030810E-9
1.551176E+3,	27.280558E-9
1.551180E+3,	28.250096E-9
1.551184E+3,	33.441124E-9
1.551188E+3,	41.809005E-9
1.551192E+3,	51.473490E-9
1.551196E+3,	63.718085E-9
1.551200E+3,	80.186071E-9
1.551204E+3,	96.294896E-9
1.551208E+3,	109.829915E-9
1.551212E+3,	123.702024E-9
1.551216E+3,	135.257664E-9
1.551220E+3,	146.214152E-9
1.551224E+3,	153.456336E-9
1.551228E+3,	157.049525E-9
1.551232E+3,	158.322784E-9
1.551236E+3,	155.749587E-9
1.551240E+3,	150.378860E-9
1.551244E+3,	143.578549E-9
1.551248E+3,	134.229730E-9
1.551252E+3,	120.432242E-9
1.551256E+3,	105.514427E-9
1.551260E+3,	92.776799E-9
1.551264E+3,	79.474488E-9
1.551268E+3,	66.756916E-9
1.551272E+3,	53.156582E-9
1.551276E+3,	42.405295E-9
1.551280E+3,	35.695464E-9
1.551284E+3,	30.393206E-9
1.551288E+3,	27.955265E-9
1.551292E+3,	29.165196E-9
1.551296E+3,	32.709084E-9
1.551300E+3,	39.102166E-9
1.551304E+3,	50.040110E-9
1.551308E+3,	62.614019E-9
1.551312E+3,	74.265351E-9
1.551316E+3,	87.526130E-9
1.551320E+3,	100.732888E-9
1.551324E+3,	115.886163E-9
1.551328E+3,	128.507542E-9
1.551332E+3,	137.764267E-9
1.551336E+3,	146.244087E-9
1.551340E+3,	152.251187E-9
1.551344E+3,	154.156851E-9
1.551348E+3,	153.012590E-9
1.551352E+3,	149.382128E-9
1.551356E+3,	141.370364E-9
1.551360E+3,	130.944933E-9
1.551364E+3,	120.886226E-9
1.551368E+3,	108.647319E-9
1.551372E+3,	95.443029E-9
1.551376E+3,	79.947020E-9
1.551380E+3,	66.564125E-9
1.551384E+3,	56.275526E-9
1.551388E+3,	45.834025E-9
1.551392E+3,	36.147117E-9
1.551396E+3,	30.004647E-9
1.551400E+3,	27.248918E-9
1.551404E+3,	26.306746E-9
1.551408E+3,	28.677164E-9
1.551412E+3,	33.927145E-9
1.551416E+3,	40.813851E-9
1.551420E+3,	50.559847E-9
1.551424E+3,	64.603750E-9
1.551428E+3,	78.381194E-9
1.551432E+3,	90.113829E-9
1.551436E+3,	103.500648E-9
1.551440E+3,	116.326933E-9
1.551444E+3,	129.948058E-9
1.551448E+3,	140.067852E-9
1.551452E+3,	145.793263E-9
1.551456E+3,	149.356125E-9
1.551460E+3,	149.991569E-9
1.551464E+3,	147.527236E-9
1.551468E+3,	142.788514E-9
1.551472E+3,	135.169003E-9
1.551476E+3,	123.936578E-9
1.551480E+3,	112.728707E-9
1.551484E+3,	102.787987E-9
1.551488E+3,	90.515394E-9
1.551492E+3,	77.578633E-9
1.551496E+3,	62.481197E-9
1.551500E+3,	50.330134E-9
1.551504E+3,	42.026838E-9
1.551508E+3,	34.645589E-9
1.551512E+3,	28.624925E-9
1.551516E+3,	26.085217E-9
1.551520E+3,	26.711235E-9
1.551524E+3,	30.132523E-9
1.551528E+3,	37.690609E-9
1.551532E+3,	47.205229E-9
1.551536E+3,	56.660187E-9
1.551540E+3,	68.090934E-9
1.551544E+3,	80.432379E-9
1.551548E+3,	96.116068E-9
1.551552E+3,	110.037449E-9
1.551556E+3,	120.240514E-9
1.551560E+3,	129.894369E-9
1.551564E+3,	138.676189E-9
1.551568E+3,	144.041663E-9
1.551572E+3,	145.909552E-9
1.551576E+3,	145.572371E-9
1.551580E+3,	141.090369E-9
1.551584E+3,	133.871057E-9
1.551588E+3,	126.468895E-9
1.551592E+3,	116.689969E-9
1.551596E+3,	105.261902E-9
1.551600E+3,	89.623778E-9
1.551604E+3,	74.839254E-9
1.551608E+3,	63.591663E-9
1.551612E+3,	52.086295E-9
1.551616E+3,	41.033054E-9
1.551620E+3,	33.047789E-9
1.551624E+3,	28.522882E-9
1.551628E+3,	25.913254E-9
1.551632E+3,	26.321318E-9
1.551636E+3,	29.622562E-9
1.551640E+3,	34.522830E-9
1.551644E+3,	41.929183E-9
1.551648E+3,	53.876557E-9
1.551652E+3,	66.167334E-9
1.551656E+3,	76.920148E-9
1.551660E+3,	89.575973E-9
1.551664E+3,	102.005344E-9
1.551668E+3,	115.661163E-9
1.551672E+3,	126.374779E-9
1.551676E+3,	133.566538E-9
1.551680E+3,	139.465837E-9
1.551684E+3,	142.910084E-9
1.551688E+3,	142.731947E-9
1.551692E+3,	139.951700E-9
1.551696E+3,	134.494060E-9
1.551700E+3,	125.052725E-9
1.551704E+3,	113.979200E-9
1.551708E+3,	102.936962E-9
1.551712E+3,	89.977501E-9
1.551716E+3,	77.478763E-9
1.551720E+3,	63.948570E-9
1.551724E+3,	52.505148E-9
1.551728E+3,	43.803833E-9
1.551732E+3,	35.737062E-9
1.551736E+3,	28.799446E-9
1.551740E+3,	25.310686E-9
1.551744E+3,	24.920534E-9
1.551748E+3,	26.816817E-9
1.551752E+3,	32.490201E-9
1.551756E+3,	40.612141E-9
1.551760E+3,	49.405407E-9
1.551764E+3,	60.880029E-9
1.551768E+3,	73.010117E-9
1.551772E+3,	87.830337E-9
1.551776E+3,	100.966498E-9
1.551780E+3,	110.754092E-9
1.551784E+3,	120.448415E-9
1.551788E+3,	129.985107E-9
1.551792E+3,	136.405882E-9
1.551796E+3,	139.190461E-9
1.551800E+3,	139.889639E-9
1.551804E+3,	137.503295E-9
1.551808E+3,	132.423789E-9
1.551812E+3,	125.847919E-9
1.551816E+3,	116.791923E-9
1.551820E+3,	106.312241E-9
1.551824E+3,	92.237640E-9
1.551828E+3,	78.705490E-9
1.551832E+3,	67.783914E-9
1.551836E+3,	56.288815E-9
1.551840E+3,	43.632497E-9
1.551844E+3,	33.954069E-9
1.551848E+3,	28.570511E-9
1.551852E+3,	25.078270E-9
1.551856E+3,	24.251663E-9
1.551860E+3,	26.542754E-9
1.551864E+3,	30.916093E-9
1.551868E+3,	37.993170E-9
1.551872E+3,	49.020902E-9
1.551876E+3,	60.775201E-9
1.551880E+3,	70.609539E-9
1.551884E+3,	81.957093E-9
1.551888E+3,	93.992858E-9
1.551892E+3,	107.700683E-9
1.551896E+3,	118.478264E-9
1.551900E+3,	125.612795E-9
1.551904E+3,	131.496095E-9
1.551908E+3,	135.529670E-9
1.551912E+3,	136.612028E-9
1.551916E+3,	135.162712E-9
1.551920E+3,	130.899295E-9
1.551924E+3,	122.663062E-9
1.551928E+3,	113.184376E-9
1.551932E+3,	104.258825E-9
1.551936E+3,	93.192825E-9
1.551940E+3,	81.140455E-9
1.551944E+3,	66.241136E-9
1.551948E+3,	53.494139E-9
1.551952E+3,	44.421444E-9
1.551956E+3,	36.012368E-9
1.551960E+3,	28.788634E-9
1.551964E+3,	24.771906E-9
1.551968E+3,	23.663948E-9
1.551972E+3,	24.682029E-9
1.551976E+3,	29.320750E-9
1.551980E+3,	36.427633E-9
1.551984E+3,	43.821073E-9
1.551988E+3,	53.612105E-9
1.551992E+3,	64.678353E-9
1.551996E+3,	78.476710E-9
1.552000E+3,	92.429578E-9
1.552004E+3,	102.961096E-9
1.552008E+3,	112.920951E-9
1.552012E+3,	122.616729E-9
1.552016E+3,	129.437150E-9
1.552020E+3,	132.852613E-9
1.552024E+3,	134.278184E-9
1.552028E+3,	132.739859E-9
1.552032E+3,	128.791837E-9
1.552036E+3,	123.508373E-9
1.552040E+3,	115.880076E-9
1.552044E+3,	104.564007E-9
1.552048E+3,	92.900654E-9
1.552052E+3,	82.675893E-9
1.552056E+3,	71.273096E-9
1.552060E+3,	58.148328E-9
1.552064E+3,	47.022808E-9
1.552068E+3,	39.384003E-9
1.552072E+3,	32.451353E-9
1.552076E+3,	26.778405E-9
1.552080E+3,	24.372568E-9
1.552084E+3,	24.907955E-9
1.552088E+3,	27.979005E-9
1.552092E+3,	33.368008E-9
1.552096E+3,	42.206150E-9
1.552100E+3,	52.605859E-9
1.552104E+3,	63.091896E-9
1.552108E+3,	75.341371E-9
1.552112E+3,	89.424177E-9
1.552116E+3,	101.140500E-9
1.552120E+3,	109.472378E-9
1.552124E+3,	117.713932E-9
1.552128E+3,	125.842357E-9
1.552132E+3,	130.844430E-9
1.552136E+3,	132.823942E-9
1.552140E+3,	132.883676E-9
1.552144E+3,	130.135077E-9
1.552148E+3,	125.355661E-9
1.552152E+3,	119.612400E-9
1.552156E+3,	111.364338E-9
1.552160E+3,	98.967451E-9
1.552164E+3,	86.439670E-9
1.552168E+3,	76.188537E-9
1.552172E+3,	65.305981E-9
1.552176E+3,	53.024344E-9
1.552180E+3,	42.800290E-9
1.552184E+3,	35.719084E-9
1.552188E+3,	29.301898E-9
1.552192E+3,	25.560579E-9
1.552196E+3,	24.478042E-9
1.552200E+3,	26.211724E-9
1.552204E+3,	29.907300E-9
1.552208E+3,	35.993154E-9
1.552212E+3,	45.783855E-9
1.552216E+3,	56.278048E-9
1.552220E+3,	65.841978E-9
1.552224E+3,	77.042103E-9
1.552228E+3,	90.624337E-9
1.552232E+3,	102.672679E-9
1.552236E+3,	111.346502E-9
1.552240E+3,	119.341969E-9
1.552244E+3,	126.645295E-9
1.552248E+3,	130.750203E-9
1.552252E+3,	131.684630E-9
1.552256E+3,	130.587291E-9
1.552260E+3,	126.370973E-9
1.552264E+3,	119.690648E-9
1.552268E+3,	112.458570E-9
1.552272E+3,	103.057996E-9
1.552276E+3,	90.838061E-9
1.552280E+3,	79.366337E-9
1.552284E+3,	69.754290E-9
1.552288E+3,	58.709511E-9
1.552292E+3,	48.073593E-9
1.552296E+3,	37.567059E-9
1.552300E+3,	29.943823E-9
1.552304E+3,	25.658095E-9
1.552308E+3,	23.208472E-9
1.552312E+3,	23.496160E-9
1.552316E+3,	26.652626E-9
1.552320E+3,	31.580403E-9
1.552324E+3,	39.198443E-9
1.552328E+3,	50.629253E-9
1.552332E+3,	62.434800E-9
1.552336E+3,	72.850806E-9
1.552340E+3,	84.729376E-9
1.552344E+3,	98.449061E-9
1.552348E+3,	109.481938E-9
1.552352E+3,	116.922813E-9
1.552356E+3,	123.223533E-9
1.552360E+3,	127.971499E-9
1.552364E+3,	129.501168E-9
1.552368E+3,	128.594316E-9
1.552372E+3,	125.450164E-9
1.552376E+3,	118.819449E-9
1.552380E+3,	110.592021E-9
1.552384E+3,	102.629578E-9
1.552388E+3,	93.075439E-9
1.552392E+3,	82.787648E-9
1.552396E+3,	69.699152E-9
1.552400E+3,	57.772884E-9
1.552404E+3,	48.642214E-9
1.552408E+3,	39.925804E-9
1.552412E+3,	31.704141E-9
1.552416E+3,	26.283732E-9
1.552420E+3,	23.805432E-9
1.552424E+3,	23.284579E-9
1.552428E+3,	26.021171E-9
1.552432E+3,	31.422666E-9
1.552436E+3,	37.640103E-9
1.552440E+3,	46.020407E-9
1.552444E+3,	57.786674E-9
1.552448E+3,	69.526417E-9
1.552452E+3,	79.259091E-9
1.552456E+3,	90.154004E-9
1.552460E+3,	101.791311E-9
1.552464E+3,	110.286171E-9
1.552468E+3,	115.417321E-9
1.552472E+3,	119.584340E-9
1.552476E+3,	121.743451E-9
1.552480E+3,	120.672200E-9
1.552484E+3,	117.728591E-9
1.552488E+3,	112.902596E-9
1.552492E+3,	106.170498E-9
1.552496E+3,	96.328888E-9
1.552500E+3,	85.920026E-9
1.552504E+3,	76.469018E-9
1.552508E+3,	66.107800E-9
1.552512E+3,	54.294642E-9
1.552516E+3,	44.527572E-9
1.552520E+3,	37.673327E-9
1.552524E+3,	31.123838E-9
1.552528E+3,	25.297045E-9
1.552532E+3,	22.226053E-9
1.552536E+3,	21.705877E-9
1.552540E+3,	23.091626E-9
1.552544E+3,	27.491238E-9
1.552548E+3,	33.657384E-9
1.552552E+3,	40.633807E-9
1.552556E+3,	49.827182E-9
1.552560E+3,	62.183654E-9
1.552564E+3,	73.454350E-9
1.552568E+3,	82.245738E-9
1.552572E+3,	91.480400E-9
1.552576E+3,	101.055898E-9
1.552580E+3,	107.770653E-9
1.552584E+3,	111.368033E-9
1.552588E+3,	113.442557E-9
1.552592E+3,	113.083914E-9
1.552596E+3,	110.082714E-9
1.552600E+3,	105.262783E-9
1.552604E+3,	99.732873E-9
1.552608E+3,	92.468020E-9
1.552612E+3,	81.836580E-9
1.552616E+3,	71.425507E-9
1.552620E+3,	63.110405E-9
1.552624E+3,	54.116700E-9
1.552628E+3,	44.073700E-9
1.552632E+3,	35.842071E-9
1.552636E+3,	29.877859E-9
1.552640E+3,	24.509742E-9
1.552644E+3,	20.603630E-9
1.552648E+3,	19.238711E-9
1.552652E+3,	19.884940E-9
1.552656E+3,	22.367972E-9
1.552660E+3,	28.173878E-9
1.552664E+3,	35.721279E-9
1.552668E+3,	42.988663E-9
1.552672E+3,	52.051456E-9
1.552676E+3,	63.506875E-9
1.552680E+3,	73.754911E-9
1.552684E+3,	81.958492E-9
1.552688E+3,	90.309911E-9
1.552692E+3,	96.983701E-9
1.552696E+3,	102.368656E-9
1.552700E+3,	104.943332E-9
1.552704E+3,	105.169978E-9
1.552708E+3,	103.674602E-9
1.552712E+3,	99.187241E-9
1.552716E+3,	92.986509E-9
1.552720E+3,	86.728949E-9
1.552724E+3,	79.113131E-9
1.552728E+3,	69.252130E-9
1.552732E+3,	60.147301E-9
1.552736E+3,	52.313535E-9
1.552740E+3,	43.712133E-9
1.552744E+3,	34.478656E-9
1.552748E+3,	27.342892E-9
1.552752E+3,	23.005775E-9
1.552756E+3,	19.560786E-9
1.552760E+3,	17.474917E-9
1.552764E+3,	17.650872E-9
1.552768E+3,	19.480011E-9
1.552772E+3,	23.382374E-9
1.552776E+3,	30.101206E-9
1.552780E+3,	37.606848E-9
1.552784E+3,	44.605334E-9
1.552788E+3,	52.454914E-9
1.552792E+3,	60.943091E-9
1.552796E+3,	71.274338E-9
1.552800E+3,	79.831522E-9
1.552804E+3,	85.525245E-9
1.552808E+3,	90.039602E-9
1.552812E+3,	93.196845E-9
1.552816E+3,	94.080054E-9
1.552820E+3,	93.058964E-9
1.552824E+3,	90.168247E-9
1.552828E+3,	84.347183E-9
1.552832E+3,	77.787144E-9
1.552836E+3,	71.773581E-9
1.552840E+3,	64.642157E-9
1.552844E+3,	55.468916E-9
1.552848E+3,	46.912895E-9
1.552852E+3,	40.129882E-9
1.552856E+3,	32.976051E-9
1.552860E+3,	25.895106E-9
1.552864E+3,	20.868268E-9
1.552868E+3,	17.878396E-9
1.552872E+3,	15.636950E-9
1.552876E+3,	15.071125E-9
1.552880E+3,	16.529254E-9
1.552884E+3,	19.218214E-9
1.552888E+3,	23.305078E-9
1.552892E+3,	28.425000E-9
1.552896E+3,	35.912085E-9
1.552900E+3,	43.574309E-9
1.552904E+3,	49.871662E-9
1.552908E+3,	57.074294E-9
1.552912E+3,	65.101802E-9
1.552916E+3,	71.355503E-9
1.552920E+3,	75.371895E-9
1.552924E+3,	78.704246E-9
1.552928E+3,	80.635585E-9
1.552932E+3,	80.490898E-9
1.552936E+3,	78.918670E-9
1.552940E+3,	75.966909E-9
1.552944E+3,	70.904233E-9
1.552948E+3,	65.125492E-9
1.552952E+3,	59.617775E-9
1.552956E+3,	52.986547E-9
1.552960E+3,	45.015449E-9
1.552964E+3,	37.853624E-9
1.552968E+3,	32.445114E-9
1.552972E+3,	26.956902E-9
1.552976E+3,	21.472310E-9
1.552980E+3,	17.290790E-9
1.552984E+3,	14.820615E-9
1.552988E+3,	13.403829E-9
1.552992E+3,	13.332464E-9
1.552996E+3,	14.596585E-9
1.553000E+3,	16.714616E-9
1.553004E+3,	19.928888E-9
1.553008E+3,	25.141615E-9
1.553012E+3,	30.893012E-9
1.553016E+3,	35.762045E-9
1.553020E+3,	41.230972E-9
1.553024E+3,	47.628719E-9
1.553028E+3,	53.235797E-9
1.553032E+3,	57.330347E-9
1.553036E+3,	61.022280E-9
1.553040E+3,	63.844789E-9
1.553044E+3,	64.942132E-9
1.553048E+3,	64.598874E-9
1.553052E+3,	63.002132E-9
1.553056E+3,	59.530636E-9
1.553060E+3,	55.201024E-9
1.553064E+3,	50.933290E-9
1.553068E+3,	45.548199E-9
1.553072E+3,	39.038974E-9
1.553076E+3,	33.315445E-9
1.553080E+3,	28.566961E-9
1.553084E+3,	23.695523E-9
1.553088E+3,	18.790301E-9
1.553092E+3,	14.965090E-9
1.553096E+3,	12.633923E-9
1.553100E+3,	10.970296E-9
1.553104E+3,	10.210238E-9
1.553108E+3,	10.638270E-9
1.553112E+3,	11.901332E-9
1.553116E+3,	14.113971E-9
1.553120E+3,	17.802998E-9
1.553124E+3,	21.926650E-9
1.553128E+3,	25.633947E-9
1.553132E+3,	29.945831E-9
1.553136E+3,	35.089258E-9
1.553140E+3,	39.603459E-9
1.553144E+3,	42.765792E-9
1.553148E+3,	45.569326E-9
1.553152E+3,	47.816080E-9
1.553156E+3,	48.867894E-9
1.553160E+3,	48.913329E-9
1.553164E+3,	47.963510E-9
1.553168E+3,	45.565744E-9
1.553172E+3,	42.442406E-9
1.553176E+3,	39.302188E-9
1.553180E+3,	35.424281E-9
1.553184E+3,	30.747786E-9
1.553188E+3,	25.983795E-9
1.553192E+3,	22.020931E-9
1.553196E+3,	18.040081E-9
1.553200E+3,	14.091389E-9
1.553204E+3,	11.174139E-9
1.553208E+3,	9.300879E-9
1.553212E+3,	7.898907E-9
1.553216E+3,	7.216680E-9
1.553220E+3,	7.353383E-9
1.553224E+3,	8.170427E-9
1.553228E+3,	9.705182E-9
1.553232E+3,	12.211650E-9
1.553236E+3,	14.958819E-9
1.553240E+3,	17.373406E-9
1.553244E+3,	20.323589E-9
1.553248E+3,	24.014879E-9
1.553252E+3,	27.125142E-9
1.553256E+3,	29.276015E-9
1.553260E+3,	31.288432E-9
1.553264E+3,	33.056048E-9
1.553268E+3,	34.017145E-9
1.553272E+3,	34.146065E-9
1.553276E+3,	33.643557E-9
1.553280E+3,	32.109194E-9
1.553284E+3,	30.009660E-9
1.553288E+3,	27.939777E-9
1.553292E+3,	25.282162E-9
1.553296E+3,	21.668030E-9
1.553300E+3,	18.263159E-9
1.553304E+3,	15.572105E-9
1.553308E+3,	12.900792E-9
1.553312E+3,	10.078685E-9
1.553316E+3,	7.863533E-9
1.553320E+3,	6.488760E-9
1.553324E+3,	5.438325E-9
1.553328E+3,	4.834090E-9
1.553332E+3,	4.878617E-9
1.553336E+3,	5.290900E-9
1.553340E+3,	6.154424E-9
1.553344E+3,	7.653445E-9
1.553348E+3,	9.393332E-9
1.553352E+3,	11.000012E-9
1.553356E+3,	12.884916E-9
1.553360E+3,	15.123195E-9
1.553364E+3,	17.036827E-9
1.553368E+3,	18.455633E-9
1.553372E+3,	19.758404E-9
1.553376E+3,	20.907048E-9
1.553380E+3,	21.475232E-9
1.553384E+3,	21.517968E-9
1.553388E+3,	21.203210E-9
1.553392E+3,	20.368517E-9
1.553396E+3,	19.118676E-9
1.553400E+3,	17.778794E-9
1.553404E+3,	16.067243E-9
1.553408E+3,	13.861243E-9
1.553412E+3,	11.777545E-9
1.553416E+3,	10.101966E-9
1.553420E+3,	8.325913E-9
1.553424E+3,	6.440912E-9
1.553428E+3,	5.002153E-9
1.553432E+3,	4.102440E-9
1.553436E+3,	3.347483E-9
1.553440E+3,	2.895840E-9
1.553444E+3,	2.836681E-9
1.553448E+3,	3.057164E-9
1.553452E+3,	3.541616E-9
1.553456E+3,	4.366731E-9
1.553460E+3,	5.316056E-9
1.553464E+3,	6.197267E-9
1.553468E+3,	7.277418E-9
1.553472E+3,	8.477831E-9
1.553476E+3,	9.505964E-9
1.553480E+3,	10.298836E-9
1.553484E+3,	11.017675E-9
1.553488E+3,	11.696251E-9
1.553492E+3,	12.053130E-9
1.553496E+3,	12.153502E-9
1.553500E+3,	11.992608E-9
1.553504E+3,	11.612667E-9
1.553508E+3,	11.082875E-9
1.553512E+3,	10.290382E-9
1.553516E+3,	9.143771E-9
1.553520E+3,	8.005571E-9
1.553524E+3,	7.039579E-9
1.553528E+3,	5.962381E-9
1.553532E+3,	4.718925E-9
1.553536E+3,	3.670263E-9
1.553540E+3,	2.973040E-9
1.553544E+3,	2.366082E-9
1.553548E+3,	1.877649E-9
1.553552E+3,	1.635731E-9
1.553556E+3,	1.549606E-9
1.553560E+3,	1.604567E-9
1.553564E+3,	1.891847E-9
1.553568E+3,	2.262497E-9
1.553572E+3,	2.652638E-9
1.553576E+3,	3.142199E-9
1.553580E+3,	3.773551E-9
1.553584E+3,	4.321182E-9
1.553588E+3,	4.786911E-9
1.553592E+3,	5.248060E-9
1.553596E+3,	5.715956E-9
1.553600E+3,	6.038436E-9
1.553604E+3,	6.181741E-9
1.553608E+3,	6.269828E-9
1.553612E+3,	6.184877E-9
1.553616E+3,	5.979464E-9
1.553620E+3,	5.712688E-9
1.553624E+3,	5.348660E-9
1.553628E+3,	4.825020E-9
1.553632E+3,	4.280010E-9
1.553636E+3,	3.793738E-9
1.553640E+3,	3.244872E-9
1.553644E+3,	2.612226E-9
1.553648E+3,	2.106238E-9
1.553652E+3,	1.736884E-9
1.553656E+3,	1.378085E-9
1.553660E+3,	1.070858E-9
1.553664E+3,	890.097242E-12
1.553668E+3,	807.560202E-12
1.553672E+3,	767.699803E-12
1.553676E+3,	853.735956E-12
1.553680E+3,	1.004314E-9
1.553684E+3,	1.184577E-9
1.553688E+3,	1.418329E-9
1.553692E+3,	1.699419E-9
1.553696E+3,	1.960427E-9
1.553700E+3,	2.211625E-9
1.553704E+3,	2.443653E-9
1.553708E+3,	2.674516E-9
1.553712E+3,	2.815230E-9
1.553716E+3,	2.914683E-9
1.553720E+3,	2.980816E-9
1.553724E+3,	2.983122E-9
1.553728E+3,	2.933421E-9
1.553732E+3,	2.826115E-9
1.553736E+3,	2.680859E-9
1.553740E+3,	2.452438E-9
1.553744E+3,	2.210675E-9
1.553748E+3,	2.008761E-9
1.553752E+3,	1.742266E-9
1.553756E+3,	1.424157E-9
1.553760E+3,	1.155584E-9
1.553764E+3,	982.687420E-12
1.553768E+3,	772.580200E-12
1.553772E+3,	562.800995E-12
1.553776E+3,	425.164721E-12
1.553780E+3,	373.032243E-12
1.553784E+3,	331.866312E-12
1.553788E+3,	358.909405E-12
1.553792E+3,	379.925823E-12
1.553796E+3,	429.902712E-12
1.553800E+3,	525.261403E-12
1.553804E+3,	642.550510E-12
1.553808E+3,	791.210297E-12
1.553812E+3,	884.726162E-12
1.553816E+3,	992.823121E-12
1.553820E+3,	1.074467E-9
1.553824E+3,	1.172269E-9
1.553828E+3,	1.225446E-9
1.553832E+3,	1.267177E-9
1.553836E+3,	1.309258E-9
1.553840E+3,	1.301027E-9
1.553844E+3,	1.263047E-9
1.553848E+3,	1.212129E-9
1.553852E+3,	1.122918E-9
1.553856E+3,	1.009573E-9
1.553860E+3,	905.156541E-12
1.553864E+3,	794.392270E-12
1.553868E+3,	664.860469E-12
1.553872E+3,	522.990891E-12
1.553876E+3,	473.322334E-12
1.553880E+3,	368.683521E-12
1.553884E+3,	276.894615E-12
1.553888E+3,	206.105933E-12
1.553892E+3,	178.896020E-12
1.553896E+3,	158.841986E-12
1.553900E+3,	141.493997E-12
1.553904E+3,	161.981178E-12
1.553908E+3,	155.867335E-12
1.553912E+3,	191.846191E-12
1.553916E+3,	262.422811E-12
1.553920E+3,	316.227042E-12
1.553924E+3,	343.968900E-12
1.553928E+3,	397.640760E-12
1.553932E+3,	455.038630E-12
1.553936E+3,	514.780109E-12
1.553940E+3,	509.338234E-12
1.553944E+3,	539.036592E-12
1.553948E+3,	537.480264E-12
1.553952E+3,	551.906090E-12
1.553956E+3,	530.821684E-12
1.553960E+3,	527.838253E-12
1.553964E+3,	479.408138E-12
1.553968E+3,	446.923272E-12
1.553972E+3,	380.665254E-12
1.553976E+3,	341.972614E-12
1.553980E+3,	296.121594E-12
1.553984E+3,	234.968033E-12
1.553988E+3,	210.032185E-12
1.553992E+3,	173.791115E-12
1.553996E+3,	126.801823E-12
1.554000E+3,	93.639201E-12
1.554004E+3,	62.422685E-12
1.554008E+3,	65.557982E-12
1.554012E+3,	57.138945E-12
1.554016E+3,	70.139565E-12
1.554020E+3,	70.973641E-12
1.554024E+3,	89.700976E-12
1.554028E+3,	107.673411E-12
1.554032E+3,	128.525527E-12
1.554036E+3,	150.990256E-12
1.554040E+3,	201.738630E-12
1.554044E+3,	205.240937E-12
1.554048E+3,	214.430086E-12
1.554052E+3,	244.186021E-12
1.554056E+3,	238.820447E-12
1.554060E+3,	227.746349E-12
1.554064E+3,	242.536021E-12
1.554068E+3,	238.902245E-12
1.554072E+3,	219.111878E-12
1.554076E+3,	223.905748E-12
1.554080E+3,	193.109693E-12
1.554084E+3,	160.257504E-12
1.554088E+3,	148.752742E-12
1.554092E+3,	134.478738E-12
1.554096E+3,	99.248485E-12
1.554100E+3,	86.212215E-12
1.554104E+3,	67.648826E-12
1.554108E+3,	75.497838E-12
1.554112E+3,	44.966435E-12
1.554116E+3,	31.044510E-12
1.554120E+3,	38.386155E-12
1.554124E+3,	23.280032E-12
1.554128E+3,	29.345244E-12
1.554132E+3,	35.929797E-12
1.554136E+3,	56.011872E-12
1.554140E+3,	41.097862E-12
1.554144E+3,	53.364957E-12
1.554148E+3,	63.974436E-12
1.554152E+3,	65.988537E-12
1.554156E+3,	82.895380E-12
1.554160E+3,	92.037623E-12
1.554164E+3,	111.812651E-12
1.554168E+3,	116.894501E-12
1.554172E+3,	95.231253E-12
1.554176E+3,	81.112955E-12
1.554180E+3,	120.377270E-12
1.554184E+3,	118.394311E-12
1.554188E+3,	91.372382E-12
1.554192E+3,	94.322193E-12
1.554196E+3,	80.422135E-12
1.554200E+3,	71.635546E-12
1.554204E+3,	56.117346E-12
1.554208E+3,	53.537988E-12
1.554212E+3,	37.581504E-12
1.554216E+3,	25.458946E-12
1.554220E+3,	40.668625E-12
1.554224E+3,	20.525825E-12
1.554228E+3,	25.524291E-12
1.554232E+3,	17.567905E-12
1.554236E+3,	29.989683E-12
1.554240E+3,	206.412909E-15
1.554244E+3,	21.042611E-12
1.554248E+3,	15.688122E-12
1.554252E+3,	27.360944E-12
1.554256E+3,	12.976284E-12
1.554260E+3,	15.015793E-12
1.554264E+3,	9.006213E-12
1.554268E+3,	39.351257E-12
1.554272E+3,	41.318719E-12
1.554276E+3,	27.973462E-12
1.554280E+3,	33.397007E-12
1.554284E+3,	42.293616E-12
1.554288E+3,	45.783858E-12
1.554292E+3,	35.200641E-12
1.554296E+3,	36.797350E-12
1.554300E+3,	18.771592E-12
1.554304E+3,	26.698901E-12
1.554308E+3,	26.826673E-12
1.554312E+3,	34.991657E-12
1.554316E+3,	32.647261E-12
1.554320E+3,	18.889516E-12
1.554324E+3,	3.052513E-12
1.554328E+3,	7.610502E-12
1.554332E+3,	0.000000E+0
1.554336E+3,	0.000000E+0
1.554340E+3,	10.271127E-12
1.554344E+3,	0.000000E+0
1.554348E+3,	0.000000E+0
1.554352E+3,	8.154215E-12
1.554356E+3,	0.000000E+0
1.554360E+3,	0.000000E+0
1.554364E+3,	0.000000E+0
1.554368E+3,	40.485257E-15
1.554372E+3,	18.819341E-12
1.554376E+3,	0.000000E+0
1.554380E+3,	14.582584E-12
1.554384E+3,	22.866448E-12
1.554388E+3,	33.647000E-12
1.554392E+3,	22.741670E-12
1.554396E+3,	0.000000E+0
1.554400E+3,	1.745296E-12
1.554404E+3,	6.010749E-12
1.554408E+3,	21.552677E-12
1.554412E+3,	31.008863E-12
1.554416E+3,	7.030179E-12
1.554420E+3,	26.544284E-12
1.554424E+3,	0.000000E+0
1.554428E+3,	0.000000E+0
1.554432E+3,	8.977468E-12
1.554436E+3,	19.063909E-12
1.554440E+3,	2.938238E-12
1.554444E+3,	5.279602E-12
1.554448E+3,	0.000000E+0
1.554452E+3,	0.000000E+0
1.554456E+3,	12.638168E-12
1.554460E+3,	76.575450E-15
1.554464E+3,	19.951921E-12
1.554468E+3,	0.000000E+0
1.554472E+3,	0.000000E+0
1.554476E+3,	16.339793E-12
1.554480E+3,	6.587341E-12
1.554484E+3,	13.502904E-12
1.554488E+3,	0.000000E+0
1.554492E+3,	2.979369E-12
1.554496E+3,	14.841135E-12
1.554500E+3,	14.797115E-12
