YOKOGAWA AQ6370D - S/N: 91S206859
#Date: 11/08/2023 Time: 19:38:12,	
A_WL(nm),	A_I(mW)
1.557000E+3,	274.164931E-12
1.557004E+3,	268.972893E-12
1.557008E+3,	275.052905E-12
1.557012E+3,	269.183684E-12
1.557016E+3,	287.234583E-12
1.557020E+3,	289.020877E-12
1.557024E+3,	278.056926E-12
1.557028E+3,	298.050586E-12
1.557032E+3,	281.284997E-12
1.557036E+3,	280.967962E-12
1.557040E+3,	296.696540E-12
1.557044E+3,	311.593517E-12
1.557048E+3,	288.272555E-12
1.557052E+3,	294.786125E-12
1.557056E+3,	307.628468E-12
1.557060E+3,	296.049273E-12
1.557064E+3,	290.893235E-12
1.557068E+3,	305.265566E-12
1.557072E+3,	290.399247E-12
1.557076E+3,	278.846642E-12
1.557080E+3,	298.397758E-12
1.557084E+3,	281.002517E-12
1.557088E+3,	287.492249E-12
1.557092E+3,	314.713203E-12
1.557096E+3,	300.443712E-12
1.557100E+3,	303.758100E-12
1.557104E+3,	310.198590E-12
1.557108E+3,	299.348731E-12
1.557112E+3,	309.131898E-12
1.557116E+3,	305.775989E-12
1.557120E+3,	313.149447E-12
1.557124E+3,	306.677624E-12
1.557128E+3,	301.172568E-12
1.557132E+3,	292.485216E-12
1.557136E+3,	311.345729E-12
1.557140E+3,	326.794877E-12
1.557144E+3,	315.776147E-12
1.557148E+3,	300.826081E-12
1.557152E+3,	307.387481E-12
1.557156E+3,	325.728402E-12
1.557160E+3,	321.032208E-12
1.557164E+3,	314.482211E-12
1.557168E+3,	316.183319E-12
1.557172E+3,	312.852306E-12
1.557176E+3,	306.570301E-12
1.557180E+3,	313.963242E-12
1.557184E+3,	324.216423E-12
1.557188E+3,	325.877219E-12
1.557192E+3,	320.379034E-12
1.557196E+3,	330.353808E-12
1.557200E+3,	318.818251E-12
1.557204E+3,	314.649485E-12
1.557208E+3,	315.919973E-12
1.557212E+3,	314.104304E-12
1.557216E+3,	318.701255E-12
1.557220E+3,	324.480666E-12
1.557224E+3,	306.786605E-12
1.557228E+3,	298.299905E-12
1.557232E+3,	285.422816E-12
1.557236E+3,	285.015940E-12
1.557240E+3,	292.867637E-12
1.557244E+3,	291.766635E-12
1.557248E+3,	297.876590E-12
1.557252E+3,	282.659954E-12
1.557256E+3,	284.709415E-12
1.557260E+3,	284.050322E-12
1.557264E+3,	288.656409E-12
1.557268E+3,	279.310032E-12
1.557272E+3,	270.357965E-12
1.557276E+3,	266.986487E-12
1.557280E+3,	259.971344E-12
1.557284E+3,	264.056339E-12
1.557288E+3,	267.493524E-12
1.557292E+3,	278.518179E-12
1.557296E+3,	276.251050E-12
1.557300E+3,	280.555908E-12
1.557304E+3,	284.504985E-12
1.557308E+3,	278.527762E-12
1.557312E+3,	279.905469E-12
1.557316E+3,	285.595471E-12
1.557320E+3,	282.909771E-12
1.557324E+3,	290.184345E-12
1.557328E+3,	301.208599E-12
1.557332E+3,	286.855322E-12
1.557336E+3,	296.574852E-12
1.557340E+3,	297.287376E-12
1.557344E+3,	299.311612E-12
1.557348E+3,	301.235555E-12
1.557352E+3,	294.182466E-12
1.557356E+3,	317.821983E-12
1.557360E+3,	319.662245E-12
1.557364E+3,	323.364410E-12
1.557368E+3,	324.023494E-12
1.557372E+3,	313.052229E-12
1.557376E+3,	307.302793E-12
1.557380E+3,	325.421332E-12
1.557384E+3,	311.969731E-12
1.557388E+3,	308.808030E-12
1.557392E+3,	318.375751E-12
1.557396E+3,	308.793635E-12
1.557400E+3,	321.647610E-12
1.557404E+3,	318.269986E-12
1.557408E+3,	317.904762E-12
1.557412E+3,	348.986695E-12
1.557416E+3,	336.531960E-12
1.557420E+3,	347.173138E-12
1.557424E+3,	349.192102E-12
1.557428E+3,	349.407126E-12
1.557432E+3,	365.647316E-12
1.557436E+3,	380.295899E-12
1.557440E+3,	385.641030E-12
1.557444E+3,	411.976164E-12
1.557448E+3,	405.652217E-12
1.557452E+3,	427.541153E-12
1.557456E+3,	437.672766E-12
1.557460E+3,	452.201264E-12
1.557464E+3,	463.469111E-12
1.557468E+3,	480.580585E-12
1.557472E+3,	500.708102E-12
1.557476E+3,	512.116724E-12
1.557480E+3,	549.086062E-12
1.557484E+3,	567.381904E-12
1.557488E+3,	572.762770E-12
1.557492E+3,	605.797246E-12
1.557496E+3,	618.221530E-12
1.557500E+3,	639.668481E-12
1.557504E+3,	647.637935E-12
1.557508E+3,	676.916002E-12
1.557512E+3,	684.201079E-12
1.557516E+3,	695.727868E-12
1.557520E+3,	740.606855E-12
1.557524E+3,	735.028776E-12
1.557528E+3,	778.700435E-12
1.557532E+3,	781.044094E-12
1.557536E+3,	790.197145E-12
1.557540E+3,	809.379643E-12
1.557544E+3,	838.181193E-12
1.557548E+3,	839.209714E-12
1.557552E+3,	862.414902E-12
1.557556E+3,	893.423846E-12
1.557560E+3,	914.179719E-12
1.557564E+3,	934.229118E-12
1.557568E+3,	961.868120E-12
1.557572E+3,	1.005122E-9
1.557576E+3,	1.039701E-9
1.557580E+3,	1.066115E-9
1.557584E+3,	1.123941E-9
1.557588E+3,	1.150724E-9
1.557592E+3,	1.215741E-9
1.557596E+3,	1.269377E-9
1.557600E+3,	1.312634E-9
1.557604E+3,	1.350798E-9
1.557608E+3,	1.389993E-9
1.557612E+3,	1.445254E-9
1.557616E+3,	1.484477E-9
1.557620E+3,	1.561926E-9
1.557624E+3,	1.628595E-9
1.557628E+3,	1.671104E-9
1.557632E+3,	1.754896E-9
1.557636E+3,	1.817864E-9
1.557640E+3,	1.889650E-9
1.557644E+3,	1.973245E-9
1.557648E+3,	2.068056E-9
1.557652E+3,	2.163138E-9
1.557656E+3,	2.237248E-9
1.557660E+3,	2.314780E-9
1.557664E+3,	2.394362E-9
1.557668E+3,	2.486713E-9
1.557672E+3,	2.540920E-9
1.557676E+3,	2.589661E-9
1.557680E+3,	2.678805E-9
1.557684E+3,	2.755930E-9
1.557688E+3,	2.760428E-9
1.557692E+3,	2.836743E-9
1.557696E+3,	2.888042E-9
1.557700E+3,	2.941855E-9
1.557704E+3,	2.989515E-9
1.557708E+3,	3.066033E-9
1.557712E+3,	3.143476E-9
1.557716E+3,	3.208915E-9
1.557720E+3,	3.287118E-9
1.557724E+3,	3.370560E-9
1.557728E+3,	3.442454E-9
1.557732E+3,	3.511775E-9
1.557736E+3,	3.633366E-9
1.557740E+3,	3.707961E-9
1.557744E+3,	3.810057E-9
1.557748E+3,	3.915028E-9
1.557752E+3,	4.009287E-9
1.557756E+3,	4.092584E-9
1.557760E+3,	4.190369E-9
1.557764E+3,	4.332838E-9
1.557768E+3,	4.438678E-9
1.557772E+3,	4.547687E-9
1.557776E+3,	4.685563E-9
1.557780E+3,	4.829086E-9
1.557784E+3,	4.975908E-9
1.557788E+3,	5.112524E-9
1.557792E+3,	5.291352E-9
1.557796E+3,	5.447070E-9
1.557800E+3,	5.621272E-9
1.557804E+3,	5.820851E-9
1.557808E+3,	5.985735E-9
1.557812E+3,	6.183955E-9
1.557816E+3,	6.371570E-9
1.557820E+3,	6.556209E-9
1.557824E+3,	6.748499E-9
1.557828E+3,	6.902033E-9
1.557832E+3,	7.101967E-9
1.557836E+3,	7.264243E-9
1.557840E+3,	7.392829E-9
1.557844E+3,	7.531936E-9
1.557848E+3,	7.683839E-9
1.557852E+3,	7.850608E-9
1.557856E+3,	7.994774E-9
1.557860E+3,	8.167870E-9
1.557864E+3,	8.325064E-9
1.557868E+3,	8.498088E-9
1.557872E+3,	8.676085E-9
1.557876E+3,	8.838048E-9
1.557880E+3,	9.066068E-9
1.557884E+3,	9.252140E-9
1.557888E+3,	9.503327E-9
1.557892E+3,	9.706846E-9
1.557896E+3,	9.885786E-9
1.557900E+3,	10.073984E-9
1.557904E+3,	10.232085E-9
1.557908E+3,	10.409596E-9
1.557912E+3,	10.538281E-9
1.557916E+3,	10.646692E-9
1.557920E+3,	10.790394E-9
1.557924E+3,	10.905858E-9
1.557928E+3,	11.051038E-9
1.557932E+3,	11.225975E-9
1.557936E+3,	11.422087E-9
1.557940E+3,	11.594027E-9
1.557944E+3,	11.873910E-9
1.557948E+3,	12.151702E-9
1.557952E+3,	12.427018E-9
1.557956E+3,	12.746662E-9
1.557960E+3,	13.133255E-9
1.557964E+3,	13.547827E-9
1.557968E+3,	13.842918E-9
1.557972E+3,	14.215680E-9
1.557976E+3,	14.570661E-9
1.557980E+3,	14.850313E-9
1.557984E+3,	15.121554E-9
1.557988E+3,	15.435854E-9
1.557992E+3,	15.720863E-9
1.557996E+3,	15.904800E-9
1.558000E+3,	16.111471E-9
1.558004E+3,	16.375577E-9
1.558008E+3,	16.583511E-9
1.558012E+3,	16.740055E-9
1.558016E+3,	17.017826E-9
1.558020E+3,	17.317512E-9
1.558024E+3,	17.505596E-9
1.558028E+3,	17.811548E-9
1.558032E+3,	18.169156E-9
1.558036E+3,	18.439172E-9
1.558040E+3,	18.709565E-9
1.558044E+3,	19.091313E-9
1.558048E+3,	19.349536E-9
1.558052E+3,	19.570332E-9
1.558056E+3,	19.874185E-9
1.558060E+3,	20.126428E-9
1.558064E+3,	20.308857E-9
1.558068E+3,	20.505665E-9
1.558072E+3,	20.734022E-9
1.558076E+3,	20.884659E-9
1.558080E+3,	21.016099E-9
1.558084E+3,	21.208362E-9
1.558088E+3,	21.383504E-9
1.558092E+3,	21.553735E-9
1.558096E+3,	21.841960E-9
1.558100E+3,	22.161998E-9
1.558104E+3,	22.431877E-9
1.558108E+3,	22.745962E-9
1.558112E+3,	23.224167E-9
1.558116E+3,	23.612295E-9
1.558120E+3,	23.960166E-9
1.558124E+3,	24.436574E-9
1.558128E+3,	24.836223E-9
1.558132E+3,	25.129570E-9
1.558136E+3,	25.476747E-9
1.558140E+3,	25.862591E-9
1.558144E+3,	26.148315E-9
1.558148E+3,	26.344031E-9
1.558152E+3,	26.600446E-9
1.558156E+3,	26.789754E-9
1.558160E+3,	26.936929E-9
1.558164E+3,	27.177425E-9
1.558168E+3,	27.512489E-9
1.558172E+3,	27.785509E-9
1.558176E+3,	28.024026E-9
1.558180E+3,	28.437787E-9
1.558184E+3,	28.796558E-9
1.558188E+3,	29.114410E-9
1.558192E+3,	29.644331E-9
1.558196E+3,	30.127979E-9
1.558200E+3,	30.533533E-9
1.558204E+3,	30.921994E-9
1.558208E+3,	31.376577E-9
1.558212E+3,	31.708015E-9
1.558216E+3,	31.957498E-9
1.558220E+3,	32.232888E-9
1.558224E+3,	32.435332E-9
1.558228E+3,	32.505955E-9
1.558232E+3,	32.617069E-9
1.558236E+3,	32.724405E-9
1.558240E+3,	32.794255E-9
1.558244E+3,	32.881670E-9
1.558248E+3,	33.029431E-9
1.558252E+3,	33.163074E-9
1.558256E+3,	33.352263E-9
1.558260E+3,	33.602207E-9
1.558264E+3,	33.967804E-9
1.558268E+3,	34.337441E-9
1.558272E+3,	34.726697E-9
1.558276E+3,	35.141194E-9
1.558280E+3,	35.541511E-9
1.558284E+3,	35.845412E-9
1.558288E+3,	36.215268E-9
1.558292E+3,	36.496268E-9
1.558296E+3,	36.632308E-9
1.558300E+3,	36.831525E-9
1.558304E+3,	36.946189E-9
1.558308E+3,	37.050935E-9
1.558312E+3,	37.136896E-9
1.558316E+3,	37.234936E-9
1.558320E+3,	37.348538E-9
1.558324E+3,	37.478467E-9
1.558328E+3,	37.685036E-9
1.558332E+3,	38.017093E-9
1.558336E+3,	38.450298E-9
1.558340E+3,	38.878584E-9
1.558344E+3,	39.520725E-9
1.558348E+3,	40.106563E-9
1.558352E+3,	40.603295E-9
1.558356E+3,	41.155148E-9
1.558360E+3,	41.680532E-9
1.558364E+3,	42.179536E-9
1.558368E+3,	42.511950E-9
1.558372E+3,	42.869902E-9
1.558376E+3,	43.078557E-9
1.558380E+3,	43.187909E-9
1.558384E+3,	43.239584E-9
1.558388E+3,	43.209517E-9
1.558392E+3,	43.179783E-9
1.558396E+3,	43.162225E-9
1.558400E+3,	43.159370E-9
1.558404E+3,	43.188309E-9
1.558408E+3,	43.221704E-9
1.558412E+3,	43.366562E-9
1.558416E+3,	43.552863E-9
1.558420E+3,	43.793281E-9
1.558424E+3,	43.996570E-9
1.558428E+3,	44.298560E-9
1.558432E+3,	44.565198E-9
1.558436E+3,	44.786370E-9
1.558440E+3,	45.067938E-9
1.558444E+3,	45.286874E-9
1.558448E+3,	45.440668E-9
1.558452E+3,	45.522692E-9
1.558456E+3,	45.550887E-9
1.558460E+3,	45.520945E-9
1.558464E+3,	45.414866E-9
1.558468E+3,	45.298036E-9
1.558472E+3,	45.162338E-9
1.558476E+3,	45.096868E-9
1.558480E+3,	45.078778E-9
1.558484E+3,	45.145657E-9
1.558488E+3,	45.236551E-9
1.558492E+3,	45.449018E-9
1.558496E+3,	45.795927E-9
1.558500E+3,	46.265212E-9
1.558504E+3,	46.729791E-9
1.558508E+3,	47.341245E-9
1.558512E+3,	47.883957E-9
1.558516E+3,	48.399484E-9
1.558520E+3,	48.833097E-9
1.558524E+3,	49.272955E-9
1.558528E+3,	49.549162E-9
1.558532E+3,	49.628706E-9
1.558536E+3,	49.640824E-9
1.558540E+3,	49.539251E-9
1.558544E+3,	49.339087E-9
1.558548E+3,	49.120354E-9
1.558552E+3,	48.865657E-9
1.558556E+3,	48.560828E-9
1.558560E+3,	48.374104E-9
1.558564E+3,	48.219185E-9
1.558568E+3,	48.164404E-9
1.558572E+3,	48.265589E-9
1.558576E+3,	48.497955E-9
1.558580E+3,	48.889886E-9
1.558584E+3,	49.247195E-9
1.558588E+3,	49.621877E-9
1.558592E+3,	50.072501E-9
1.558596E+3,	50.459359E-9
1.558600E+3,	50.733038E-9
1.558604E+3,	50.975787E-9
1.558608E+3,	51.055227E-9
1.558612E+3,	51.036205E-9
1.558616E+3,	50.936770E-9
1.558620E+3,	50.800872E-9
1.558624E+3,	50.584015E-9
1.558628E+3,	50.360612E-9
1.558632E+3,	50.072306E-9
1.558636E+3,	49.846412E-9
1.558640E+3,	49.740978E-9
1.558644E+3,	49.722071E-9
1.558648E+3,	49.777463E-9
1.558652E+3,	49.965502E-9
1.558656E+3,	50.193529E-9
1.558660E+3,	50.545045E-9
1.558664E+3,	50.922283E-9
1.558668E+3,	51.209488E-9
1.558672E+3,	51.637028E-9
1.558676E+3,	51.954047E-9
1.558680E+3,	52.198508E-9
1.558684E+3,	52.319949E-9
1.558688E+3,	52.387111E-9
1.558692E+3,	52.350601E-9
1.558696E+3,	52.249626E-9
1.558700E+3,	52.038450E-9
1.558704E+3,	51.746586E-9
1.558708E+3,	51.543370E-9
1.558712E+3,	51.325340E-9
1.558716E+3,	51.138563E-9
1.558720E+3,	51.078730E-9
1.558724E+3,	51.164691E-9
1.558728E+3,	51.409580E-9
1.558732E+3,	51.722703E-9
1.558736E+3,	52.040765E-9
1.558740E+3,	52.496917E-9
1.558744E+3,	52.962283E-9
1.558748E+3,	53.352824E-9
1.558752E+3,	53.722712E-9
1.558756E+3,	54.027450E-9
1.558760E+3,	54.140956E-9
1.558764E+3,	54.144472E-9
1.558768E+3,	53.953781E-9
1.558772E+3,	53.654863E-9
1.558776E+3,	53.279609E-9
1.558780E+3,	52.905442E-9
1.558784E+3,	52.316174E-9
1.558788E+3,	51.796810E-9
1.558792E+3,	51.465453E-9
1.558796E+3,	51.150927E-9
1.558800E+3,	51.050568E-9
1.558804E+3,	51.111948E-9
1.558808E+3,	51.251962E-9
1.558812E+3,	51.593062E-9
1.558816E+3,	52.030124E-9
1.558820E+3,	52.495101E-9
1.558824E+3,	53.150394E-9
1.558828E+3,	53.772882E-9
1.558832E+3,	54.128273E-9
1.558836E+3,	54.479101E-9
1.558840E+3,	54.660086E-9
1.558844E+3,	54.680517E-9
1.558848E+3,	54.597821E-9
1.558852E+3,	54.309976E-9
1.558856E+3,	54.006469E-9
1.558860E+3,	53.684298E-9
1.558864E+3,	53.237948E-9
1.558868E+3,	52.844234E-9
1.558872E+3,	52.611088E-9
1.558876E+3,	52.425069E-9
1.558880E+3,	52.328038E-9
1.558884E+3,	52.374577E-9
1.558888E+3,	52.533271E-9
1.558892E+3,	52.831306E-9
1.558896E+3,	53.235028E-9
1.558900E+3,	53.617012E-9
1.558904E+3,	54.098237E-9
1.558908E+3,	54.564502E-9
1.558912E+3,	54.868583E-9
1.558916E+3,	55.025542E-9
1.558920E+3,	55.086522E-9
1.558924E+3,	55.074859E-9
1.558928E+3,	54.947951E-9
1.558932E+3,	54.578738E-9
1.558936E+3,	54.158882E-9
1.558940E+3,	53.765512E-9
1.558944E+3,	53.305267E-9
1.558948E+3,	52.744298E-9
1.558952E+3,	52.385364E-9
1.558956E+3,	52.167966E-9
1.558960E+3,	52.052953E-9
1.558964E+3,	52.145392E-9
1.558968E+3,	52.256203E-9
1.558972E+3,	52.598501E-9
1.558976E+3,	53.118546E-9
1.558980E+3,	53.606322E-9
1.558984E+3,	53.946443E-9
1.558988E+3,	54.436044E-9
1.558992E+3,	54.740951E-9
1.558996E+3,	54.961589E-9
1.559000E+3,	55.100319E-9
1.559004E+3,	55.088961E-9
1.559008E+3,	54.904016E-9
1.559012E+3,	54.618951E-9
1.559016E+3,	54.097994E-9
1.559020E+3,	53.683005E-9
1.559024E+3,	53.293557E-9
1.559028E+3,	52.894267E-9
1.559032E+3,	52.650497E-9
1.559036E+3,	52.513881E-9
1.559040E+3,	52.559818E-9
1.559044E+3,	52.794480E-9
1.559048E+3,	53.119867E-9
1.559052E+3,	53.482365E-9
1.559056E+3,	54.052237E-9
1.559060E+3,	54.554328E-9
1.559064E+3,	54.903107E-9
1.559068E+3,	55.355681E-9
1.559072E+3,	55.640071E-9
1.559076E+3,	55.733641E-9
1.559080E+3,	55.735079E-9
1.559084E+3,	55.509175E-9
1.559088E+3,	55.170163E-9
1.559092E+3,	54.807329E-9
1.559096E+3,	54.205872E-9
1.559100E+3,	53.727431E-9
1.559104E+3,	53.323693E-9
1.559108E+3,	52.876677E-9
1.559112E+3,	52.588718E-9
1.559116E+3,	52.456002E-9
1.559120E+3,	52.449446E-9
1.559124E+3,	52.609998E-9
1.559128E+3,	52.857407E-9
1.559132E+3,	53.261539E-9
1.559136E+3,	53.898968E-9
1.559140E+3,	54.477538E-9
1.559144E+3,	54.883172E-9
1.559148E+3,	55.415242E-9
1.559152E+3,	55.765837E-9
1.559156E+3,	55.925217E-9
1.559160E+3,	55.985797E-9
1.559164E+3,	55.875397E-9
1.559168E+3,	55.621096E-9
1.559172E+3,	55.354095E-9
1.559176E+3,	54.956382E-9
1.559180E+3,	54.615173E-9
1.559184E+3,	54.363863E-9
1.559188E+3,	54.078032E-9
1.559192E+3,	53.901629E-9
1.559196E+3,	53.815848E-9
1.559200E+3,	53.963386E-9
1.559204E+3,	54.305653E-9
1.559208E+3,	54.837299E-9
1.559212E+3,	55.293198E-9
1.559216E+3,	56.089879E-9
1.559220E+3,	56.805627E-9
1.559224E+3,	57.288827E-9
1.559228E+3,	57.958959E-9
1.559232E+3,	58.451906E-9
1.559236E+3,	58.662279E-9
1.559240E+3,	58.779902E-9
1.559244E+3,	58.640542E-9
1.559248E+3,	58.344650E-9
1.559252E+3,	57.993058E-9
1.559256E+3,	57.413011E-9
1.559260E+3,	56.853164E-9
1.559264E+3,	56.391681E-9
1.559268E+3,	55.814178E-9
1.559272E+3,	55.463007E-9
1.559276E+3,	55.313799E-9
1.559280E+3,	55.338037E-9
1.559284E+3,	55.550214E-9
1.559288E+3,	55.852218E-9
1.559292E+3,	56.166542E-9
1.559296E+3,	56.675114E-9
1.559300E+3,	57.191609E-9
1.559304E+3,	57.514577E-9
1.559308E+3,	58.038131E-9
1.559312E+3,	58.304467E-9
1.559316E+3,	58.429295E-9
1.559320E+3,	58.459824E-9
1.559324E+3,	58.285366E-9
1.559328E+3,	58.073860E-9
1.559332E+3,	57.765136E-9
1.559336E+3,	57.325419E-9
1.559340E+3,	56.915694E-9
1.559344E+3,	56.609554E-9
1.559348E+3,	56.387087E-9
1.559352E+3,	56.278104E-9
1.559356E+3,	56.326209E-9
1.559360E+3,	56.470325E-9
1.559364E+3,	56.869341E-9
1.559368E+3,	57.316578E-9
1.559372E+3,	57.720030E-9
1.559376E+3,	58.452695E-9
1.559380E+3,	59.154494E-9
1.559384E+3,	59.658417E-9
1.559388E+3,	60.122277E-9
1.559392E+3,	60.464321E-9
1.559396E+3,	60.543867E-9
1.559400E+3,	60.484098E-9
1.559404E+3,	60.313772E-9
1.559408E+3,	60.025209E-9
1.559412E+3,	59.677787E-9
1.559416E+3,	59.204337E-9
1.559420E+3,	58.775960E-9
1.559424E+3,	58.497424E-9
1.559428E+3,	58.151547E-9
1.559432E+3,	57.997168E-9
1.559436E+3,	57.934103E-9
1.559440E+3,	57.931841E-9
1.559444E+3,	58.189030E-9
1.559448E+3,	58.542601E-9
1.559452E+3,	58.877377E-9
1.559456E+3,	59.431507E-9
1.559460E+3,	59.859961E-9
1.559464E+3,	60.139179E-9
1.559468E+3,	60.384491E-9
1.559472E+3,	60.379443E-9
1.559476E+3,	60.276121E-9
1.559480E+3,	60.019333E-9
1.559484E+3,	59.514742E-9
1.559488E+3,	58.972416E-9
1.559492E+3,	58.511467E-9
1.559496E+3,	57.867120E-9
1.559500E+3,	57.373849E-9
1.559504E+3,	57.117168E-9
1.559508E+3,	56.933459E-9
1.559512E+3,	56.977181E-9
1.559516E+3,	57.136734E-9
1.559520E+3,	57.446800E-9
1.559524E+3,	57.961946E-9
1.559528E+3,	58.600529E-9
1.559532E+3,	59.129785E-9
1.559536E+3,	59.802332E-9
1.559540E+3,	60.332334E-9
1.559544E+3,	60.662847E-9
1.559548E+3,	60.913392E-9
1.559552E+3,	61.000052E-9
1.559556E+3,	60.927370E-9
1.559560E+3,	60.730470E-9
1.559564E+3,	60.278941E-9
1.559568E+3,	59.714493E-9
1.559572E+3,	59.268946E-9
1.559576E+3,	58.645872E-9
1.559580E+3,	58.201743E-9
1.559584E+3,	57.947403E-9
1.559588E+3,	57.728386E-9
1.559592E+3,	57.738236E-9
1.559596E+3,	57.820432E-9
1.559600E+3,	58.094791E-9
1.559604E+3,	58.482095E-9
1.559608E+3,	58.951533E-9
1.559612E+3,	59.272878E-9
1.559616E+3,	59.665702E-9
1.559620E+3,	59.997044E-9
1.559624E+3,	60.124633E-9
1.559628E+3,	60.192234E-9
1.559632E+3,	60.114939E-9
1.559636E+3,	59.872562E-9
1.559640E+3,	59.519193E-9
1.559644E+3,	58.919963E-9
1.559648E+3,	58.322342E-9
1.559652E+3,	57.843035E-9
1.559656E+3,	57.333948E-9
1.559660E+3,	57.058595E-9
1.559664E+3,	56.898869E-9
1.559668E+3,	56.889546E-9
1.559672E+3,	57.032903E-9
1.559676E+3,	57.361096E-9
1.559680E+3,	57.867027E-9
1.559684E+3,	58.644839E-9
1.559688E+3,	59.538509E-9
1.559692E+3,	60.183694E-9
1.559696E+3,	60.937427E-9
1.559700E+3,	61.598627E-9
1.559704E+3,	61.951959E-9
1.559708E+3,	62.185861E-9
1.559712E+3,	62.086683E-9
1.559716E+3,	61.796160E-9
1.559720E+3,	61.370374E-9
1.559724E+3,	60.771843E-9
1.559728E+3,	60.063057E-9
1.559732E+3,	59.501878E-9
1.559736E+3,	58.851125E-9
1.559740E+3,	58.256731E-9
1.559744E+3,	57.903629E-9
1.559748E+3,	57.736718E-9
1.559752E+3,	57.725979E-9
1.559756E+3,	57.999620E-9
1.559760E+3,	58.367272E-9
1.559764E+3,	59.002048E-9
1.559768E+3,	59.653134E-9
1.559772E+3,	60.203786E-9
1.559776E+3,	60.797627E-9
1.559780E+3,	61.236103E-9
1.559784E+3,	61.440608E-9
1.559788E+3,	61.527649E-9
1.559792E+3,	61.380664E-9
1.559796E+3,	61.103206E-9
1.559800E+3,	60.715215E-9
1.559804E+3,	60.193439E-9
1.559808E+3,	59.610244E-9
1.559812E+3,	59.138767E-9
1.559816E+3,	58.676008E-9
1.559820E+3,	58.270134E-9
1.559824E+3,	58.134171E-9
1.559828E+3,	58.127459E-9
1.559832E+3,	58.315719E-9
1.559836E+3,	58.700235E-9
1.559840E+3,	59.102486E-9
1.559844E+3,	59.699678E-9
1.559848E+3,	60.313898E-9
1.559852E+3,	60.828904E-9
1.559856E+3,	61.470493E-9
1.559860E+3,	62.031656E-9
1.559864E+3,	62.375004E-9
1.559868E+3,	62.591396E-9
1.559872E+3,	62.608801E-9
1.559876E+3,	62.530065E-9
1.559880E+3,	62.280898E-9
1.559884E+3,	61.868851E-9
1.559888E+3,	61.329935E-9
1.559892E+3,	60.929748E-9
1.559896E+3,	60.508982E-9
1.559900E+3,	60.185144E-9
1.559904E+3,	60.095521E-9
1.559908E+3,	60.170577E-9
1.559912E+3,	60.399060E-9
1.559916E+3,	60.727200E-9
1.559920E+3,	61.095906E-9
1.559924E+3,	61.691292E-9
1.559928E+3,	62.292141E-9
1.559932E+3,	62.758240E-9
1.559936E+3,	63.262203E-9
1.559940E+3,	63.594086E-9
1.559944E+3,	63.663079E-9
1.559948E+3,	63.569986E-9
1.559952E+3,	63.246582E-9
1.559956E+3,	62.847540E-9
1.559960E+3,	62.280490E-9
1.559964E+3,	61.581825E-9
1.559968E+3,	60.872970E-9
1.559972E+3,	60.316094E-9
1.559976E+3,	59.799721E-9
1.559980E+3,	59.476463E-9
1.559984E+3,	59.325380E-9
1.559988E+3,	59.313745E-9
1.559992E+3,	59.457728E-9
1.559996E+3,	59.775677E-9
1.560000E+3,	60.219448E-9
1.560004E+3,	60.856323E-9
1.560008E+3,	61.499816E-9
1.560012E+3,	62.010858E-9
1.560016E+3,	62.498267E-9
1.560020E+3,	62.787877E-9
1.560024E+3,	62.858573E-9
1.560028E+3,	62.736282E-9
1.560032E+3,	62.513703E-9
1.560036E+3,	62.209094E-9
1.560040E+3,	61.711564E-9
1.560044E+3,	61.233980E-9
1.560048E+3,	60.781841E-9
1.560052E+3,	60.247610E-9
1.560056E+3,	59.827740E-9
1.560060E+3,	59.636247E-9
1.560064E+3,	59.575266E-9
1.560068E+3,	59.660410E-9
1.560072E+3,	59.951677E-9
1.560076E+3,	60.361720E-9
1.560080E+3,	61.018173E-9
1.560084E+3,	61.689423E-9
1.560088E+3,	62.274952E-9
1.560092E+3,	63.047334E-9
1.560096E+3,	63.575550E-9
1.560100E+3,	63.908690E-9
1.560104E+3,	64.172716E-9
1.560108E+3,	64.234605E-9
1.560112E+3,	64.086059E-9
1.560116E+3,	63.697881E-9
1.560120E+3,	63.068777E-9
1.560124E+3,	62.363976E-9
1.560128E+3,	61.769915E-9
1.560132E+3,	61.052462E-9
1.560136E+3,	60.512669E-9
1.560140E+3,	60.205836E-9
1.560144E+3,	60.042889E-9
1.560148E+3,	60.072193E-9
1.560152E+3,	60.308523E-9
1.560156E+3,	60.698733E-9
1.560160E+3,	61.165553E-9
1.560164E+3,	61.507104E-9
1.560168E+3,	61.921030E-9
1.560172E+3,	62.445944E-9
1.560176E+3,	62.786513E-9
1.560180E+3,	62.950026E-9
1.560184E+3,	63.041242E-9
1.560188E+3,	62.927095E-9
1.560192E+3,	62.706487E-9
1.560196E+3,	62.194831E-9
1.560200E+3,	61.621654E-9
1.560204E+3,	61.149093E-9
1.560208E+3,	60.565423E-9
1.560212E+3,	60.113467E-9
1.560216E+3,	59.927592E-9
1.560220E+3,	59.794533E-9
1.560224E+3,	59.858296E-9
1.560228E+3,	60.057604E-9
1.560232E+3,	60.362100E-9
1.560236E+3,	60.973398E-9
1.560240E+3,	61.562278E-9
1.560244E+3,	62.004179E-9
1.560248E+3,	62.554084E-9
1.560252E+3,	63.007076E-9
1.560256E+3,	63.219737E-9
1.560260E+3,	63.335752E-9
1.560264E+3,	63.229900E-9
1.560268E+3,	63.038319E-9
1.560272E+3,	62.659243E-9
1.560276E+3,	62.087727E-9
1.560280E+3,	61.517410E-9
1.560284E+3,	61.044298E-9
1.560288E+3,	60.485637E-9
1.560292E+3,	60.000698E-9
1.560296E+3,	59.716479E-9
1.560300E+3,	59.535049E-9
1.560304E+3,	59.535309E-9
1.560308E+3,	59.679682E-9
1.560312E+3,	60.009096E-9
1.560316E+3,	60.410291E-9
1.560320E+3,	60.826669E-9
1.560324E+3,	61.277562E-9
1.560328E+3,	61.769982E-9
1.560332E+3,	62.116925E-9
1.560336E+3,	62.239945E-9
1.560340E+3,	62.242408E-9
1.560344E+3,	61.970761E-9
1.560348E+3,	61.670853E-9
1.560352E+3,	61.153921E-9
1.560356E+3,	60.573871E-9
1.560360E+3,	60.083188E-9
1.560364E+3,	59.458139E-9
1.560368E+3,	58.944216E-9
1.560372E+3,	58.538875E-9
1.560376E+3,	58.324738E-9
1.560380E+3,	58.324588E-9
1.560384E+3,	58.534398E-9
1.560388E+3,	58.888277E-9
1.560392E+3,	59.380190E-9
1.560396E+3,	59.915048E-9
1.560400E+3,	60.404657E-9
1.560404E+3,	61.114873E-9
1.560408E+3,	61.619705E-9
1.560412E+3,	61.967130E-9
1.560416E+3,	62.165434E-9
1.560420E+3,	62.197789E-9
1.560424E+3,	62.055146E-9
1.560428E+3,	61.744500E-9
1.560432E+3,	61.262382E-9
1.560436E+3,	60.622919E-9
1.560440E+3,	60.087012E-9
1.560444E+3,	59.420675E-9
1.560448E+3,	58.949553E-9
1.560452E+3,	58.647107E-9
1.560456E+3,	58.511269E-9
1.560460E+3,	58.524444E-9
1.560464E+3,	58.715572E-9
1.560468E+3,	59.172498E-9
1.560472E+3,	59.625478E-9
1.560476E+3,	60.042457E-9
1.560480E+3,	60.544616E-9
1.560484E+3,	61.033358E-9
1.560488E+3,	61.379053E-9
1.560492E+3,	61.517187E-9
1.560496E+3,	61.607913E-9
1.560500E+3,	61.487761E-9
1.560504E+3,	61.346099E-9
1.560508E+3,	60.891746E-9
1.560512E+3,	60.405461E-9
1.560516E+3,	59.938176E-9
1.560520E+3,	59.303623E-9
1.560524E+3,	58.900756E-9
1.560528E+3,	58.613721E-9
1.560532E+3,	58.451813E-9
1.560536E+3,	58.335826E-9
1.560540E+3,	58.411518E-9
1.560544E+3,	58.586712E-9
1.560548E+3,	59.106096E-9
1.560552E+3,	59.678196E-9
1.560556E+3,	60.175561E-9
1.560560E+3,	60.846676E-9
1.560564E+3,	61.322400E-9
1.560568E+3,	61.626924E-9
1.560572E+3,	61.908146E-9
1.560576E+3,	61.971009E-9
1.560580E+3,	61.824017E-9
1.560584E+3,	61.528054E-9
1.560588E+3,	61.002610E-9
1.560592E+3,	60.456271E-9
1.560596E+3,	59.972875E-9
1.560600E+3,	59.320323E-9
1.560604E+3,	58.742434E-9
1.560608E+3,	58.368406E-9
1.560612E+3,	57.984963E-9
1.560616E+3,	57.816774E-9
1.560620E+3,	57.857880E-9
1.560624E+3,	58.147517E-9
1.560628E+3,	58.624967E-9
1.560632E+3,	59.084986E-9
1.560636E+3,	59.698551E-9
1.560640E+3,	60.468769E-9
1.560644E+3,	61.100680E-9
1.560648E+3,	61.468195E-9
1.560652E+3,	61.885333E-9
1.560656E+3,	62.035202E-9
1.560660E+3,	62.046661E-9
1.560664E+3,	61.818323E-9
1.560668E+3,	61.407578E-9
1.560672E+3,	61.020113E-9
1.560676E+3,	60.473430E-9
1.560680E+3,	59.931364E-9
1.560684E+3,	59.534284E-9
1.560688E+3,	59.203042E-9
1.560692E+3,	58.898094E-9
1.560696E+3,	58.770902E-9
1.560700E+3,	58.755133E-9
1.560704E+3,	58.938702E-9
1.560708E+3,	59.222685E-9
1.560712E+3,	59.482646E-9
1.560716E+3,	59.835844E-9
1.560720E+3,	60.173949E-9
1.560724E+3,	60.441369E-9
1.560728E+3,	60.750767E-9
1.560732E+3,	60.995652E-9
1.560736E+3,	61.035614E-9
1.560740E+3,	60.929538E-9
1.560744E+3,	60.720034E-9
1.560748E+3,	60.350201E-9
1.560752E+3,	60.032248E-9
1.560756E+3,	59.540199E-9
1.560760E+3,	59.072925E-9
1.560764E+3,	58.709747E-9
1.560768E+3,	58.366251E-9
1.560772E+3,	58.207967E-9
1.560776E+3,	58.224871E-9
1.560780E+3,	58.360343E-9
1.560784E+3,	58.592273E-9
1.560788E+3,	58.912840E-9
1.560792E+3,	59.326547E-9
1.560796E+3,	59.808047E-9
1.560800E+3,	60.395305E-9
1.560804E+3,	60.868127E-9
1.560808E+3,	61.303192E-9
1.560812E+3,	61.569565E-9
1.560816E+3,	61.672664E-9
1.560820E+3,	61.671528E-9
1.560824E+3,	61.522932E-9
1.560828E+3,	61.291742E-9
1.560832E+3,	60.810006E-9
1.560836E+3,	60.367866E-9
1.560840E+3,	59.918843E-9
1.560844E+3,	59.524014E-9
1.560848E+3,	59.182605E-9
1.560852E+3,	58.897119E-9
1.560856E+3,	58.808831E-9
1.560860E+3,	58.763019E-9
1.560864E+3,	58.871024E-9
1.560868E+3,	59.108516E-9
1.560872E+3,	59.477090E-9
1.560876E+3,	59.858803E-9
1.560880E+3,	60.171004E-9
1.560884E+3,	60.439790E-9
1.560888E+3,	60.565622E-9
1.560892E+3,	60.541942E-9
1.560896E+3,	60.412860E-9
1.560900E+3,	60.095225E-9
1.560904E+3,	59.731076E-9
1.560908E+3,	59.354197E-9
1.560912E+3,	58.758526E-9
1.560916E+3,	58.260344E-9
1.560920E+3,	57.905642E-9
1.560924E+3,	57.469118E-9
1.560928E+3,	57.254944E-9
1.560932E+3,	57.122324E-9
1.560936E+3,	57.131721E-9
1.560940E+3,	57.317622E-9
1.560944E+3,	57.531825E-9
1.560948E+3,	57.922850E-9
1.560952E+3,	58.393574E-9
1.560956E+3,	58.798802E-9
1.560960E+3,	59.014326E-9
1.560964E+3,	59.305911E-9
1.560968E+3,	59.418388E-9
1.560972E+3,	59.437482E-9
1.560976E+3,	59.242558E-9
1.560980E+3,	58.918301E-9
1.560984E+3,	58.614512E-9
1.560988E+3,	57.946021E-9
1.560992E+3,	57.341689E-9
1.560996E+3,	56.876790E-9
1.561000E+3,	56.299690E-9
1.561004E+3,	55.840042E-9
1.561008E+3,	55.588822E-9
1.561012E+3,	55.432223E-9
1.561016E+3,	55.389945E-9
1.561020E+3,	55.550565E-9
1.561024E+3,	55.762870E-9
1.561028E+3,	56.120194E-9
1.561032E+3,	56.466391E-9
1.561036E+3,	56.720376E-9
1.561040E+3,	57.055069E-9
1.561044E+3,	57.378977E-9
1.561048E+3,	57.547238E-9
1.561052E+3,	57.620889E-9
1.561056E+3,	57.539394E-9
1.561060E+3,	57.263078E-9
1.561064E+3,	56.870759E-9
1.561068E+3,	56.322580E-9
1.561072E+3,	55.838899E-9
1.561076E+3,	55.217521E-9
1.561080E+3,	54.695134E-9
1.561084E+3,	54.353019E-9
1.561088E+3,	54.108644E-9
1.561092E+3,	54.013950E-9
1.561096E+3,	54.071057E-9
1.561100E+3,	54.254928E-9
1.561104E+3,	54.568711E-9
1.561108E+3,	54.979906E-9
1.561112E+3,	55.423519E-9
1.561116E+3,	55.994679E-9
1.561120E+3,	56.443751E-9
1.561124E+3,	56.744926E-9
1.561128E+3,	57.025063E-9
1.561132E+3,	57.140772E-9
1.561136E+3,	57.089754E-9
1.561140E+3,	56.913839E-9
1.561144E+3,	56.618644E-9
1.561148E+3,	56.393038E-9
1.561152E+3,	55.999697E-9
1.561156E+3,	55.620882E-9
1.561160E+3,	55.381360E-9
1.561164E+3,	55.098214E-9
1.561168E+3,	54.902518E-9
1.561172E+3,	54.794255E-9
1.561176E+3,	54.807311E-9
1.561180E+3,	54.934649E-9
1.561184E+3,	55.168072E-9
1.561188E+3,	55.409876E-9
1.561192E+3,	55.812486E-9
1.561196E+3,	56.204148E-9
1.561200E+3,	56.454295E-9
1.561204E+3,	56.692640E-9
1.561208E+3,	56.804426E-9
1.561212E+3,	56.849380E-9
1.561216E+3,	56.788837E-9
1.561220E+3,	56.639093E-9
1.561224E+3,	56.477283E-9
1.561228E+3,	56.152046E-9
1.561232E+3,	55.795120E-9
1.561236E+3,	55.539484E-9
1.561240E+3,	55.274164E-9
1.561244E+3,	54.998196E-9
1.561248E+3,	54.832481E-9
1.561252E+3,	54.762830E-9
1.561256E+3,	54.801810E-9
1.561260E+3,	54.943954E-9
1.561264E+3,	55.099255E-9
1.561268E+3,	55.406795E-9
1.561272E+3,	55.723472E-9
1.561276E+3,	55.893848E-9
1.561280E+3,	56.160470E-9
1.561284E+3,	56.280456E-9
1.561288E+3,	56.348560E-9
1.561292E+3,	56.331987E-9
1.561296E+3,	56.190435E-9
1.561300E+3,	55.992357E-9
1.561304E+3,	55.632528E-9
1.561308E+3,	55.249990E-9
1.561312E+3,	54.894334E-9
1.561316E+3,	54.592418E-9
1.561320E+3,	54.280347E-9
1.561324E+3,	54.126810E-9
1.561328E+3,	54.059445E-9
1.561332E+3,	54.004570E-9
1.561336E+3,	54.135778E-9
1.561340E+3,	54.301242E-9
1.561344E+3,	54.583838E-9
1.561348E+3,	54.822138E-9
1.561352E+3,	54.987741E-9
1.561356E+3,	55.174345E-9
1.561360E+3,	55.210476E-9
1.561364E+3,	55.223417E-9
1.561368E+3,	55.117256E-9
1.561372E+3,	54.872359E-9
1.561376E+3,	54.581287E-9
1.561380E+3,	54.064993E-9
1.561384E+3,	53.604540E-9
1.561388E+3,	53.261946E-9
1.561392E+3,	52.894411E-9
1.561396E+3,	52.528483E-9
1.561400E+3,	52.283584E-9
1.561404E+3,	52.123039E-9
1.561408E+3,	52.033522E-9
1.561412E+3,	52.101521E-9
1.561416E+3,	52.259939E-9
1.561420E+3,	52.478148E-9
1.561424E+3,	52.727496E-9
1.561428E+3,	52.860468E-9
1.561432E+3,	53.078594E-9
1.561436E+3,	53.302169E-9
1.561440E+3,	53.366916E-9
1.561444E+3,	53.402350E-9
1.561448E+3,	53.329634E-9
1.561452E+3,	53.168990E-9
1.561456E+3,	52.861332E-9
1.561460E+3,	52.491509E-9
1.561464E+3,	52.246673E-9
1.561468E+3,	51.956060E-9
1.561472E+3,	51.552486E-9
1.561476E+3,	51.216780E-9
1.561480E+3,	51.023169E-9
1.561484E+3,	50.860567E-9
1.561488E+3,	50.869373E-9
1.561492E+3,	50.929071E-9
1.561496E+3,	51.133522E-9
1.561500E+3,	51.421499E-9
1.561504E+3,	51.697702E-9
1.561508E+3,	52.119678E-9
1.561512E+3,	52.491311E-9
1.561516E+3,	52.718108E-9
1.561520E+3,	52.905450E-9
1.561524E+3,	52.914968E-9
1.561528E+3,	52.831628E-9
1.561532E+3,	52.650406E-9
1.561536E+3,	52.417255E-9
1.561540E+3,	52.142927E-9
1.561544E+3,	51.792112E-9
1.561548E+3,	51.276019E-9
1.561552E+3,	50.791035E-9
1.561556E+3,	50.420920E-9
1.561560E+3,	50.094228E-9
1.561564E+3,	49.872949E-9
1.561568E+3,	49.742147E-9
1.561572E+3,	49.709234E-9
1.561576E+3,	49.745863E-9
1.561580E+3,	49.836941E-9
1.561584E+3,	50.039839E-9
1.561588E+3,	50.212558E-9
1.561592E+3,	50.392188E-9
1.561596E+3,	50.534575E-9
1.561600E+3,	50.577047E-9
1.561604E+3,	50.571923E-9
1.561608E+3,	50.454028E-9
1.561612E+3,	50.291261E-9
1.561616E+3,	50.044508E-9
1.561620E+3,	49.612559E-9
1.561624E+3,	49.071400E-9
1.561628E+3,	48.592572E-9
1.561632E+3,	48.223394E-9
1.561636E+3,	47.842802E-9
1.561640E+3,	47.594979E-9
1.561644E+3,	47.459122E-9
1.561648E+3,	47.298053E-9
1.561652E+3,	47.291205E-9
1.561656E+3,	47.363444E-9
1.561660E+3,	47.493579E-9
1.561664E+3,	47.645129E-9
1.561668E+3,	47.743896E-9
1.561672E+3,	47.887109E-9
1.561676E+3,	47.969689E-9
1.561680E+3,	48.026153E-9
1.561684E+3,	48.031171E-9
1.561688E+3,	47.965794E-9
1.561692E+3,	47.830872E-9
1.561696E+3,	47.599884E-9
1.561700E+3,	47.248963E-9
1.561704E+3,	46.921360E-9
1.561708E+3,	46.632300E-9
1.561712E+3,	46.217924E-9
1.561716E+3,	45.862153E-9
1.561720E+3,	45.599984E-9
1.561724E+3,	45.335315E-9
1.561728E+3,	45.086394E-9
1.561732E+3,	45.002669E-9
1.561736E+3,	44.883748E-9
1.561740E+3,	44.825694E-9
1.561744E+3,	44.818358E-9
1.561748E+3,	44.776342E-9
1.561752E+3,	44.751320E-9
1.561756E+3,	44.697180E-9
1.561760E+3,	44.578452E-9
1.561764E+3,	44.377031E-9
1.561768E+3,	44.182961E-9
1.561772E+3,	43.879000E-9
1.561776E+3,	43.465401E-9
1.561780E+3,	43.026407E-9
1.561784E+3,	42.690937E-9
1.561788E+3,	42.193220E-9
1.561792E+3,	41.709224E-9
1.561796E+3,	41.364655E-9
1.561800E+3,	40.901739E-9
1.561804E+3,	40.627248E-9
1.561808E+3,	40.463163E-9
1.561812E+3,	40.340802E-9
1.561816E+3,	40.244447E-9
1.561820E+3,	40.212881E-9
1.561824E+3,	40.171481E-9
1.561828E+3,	40.112050E-9
1.561832E+3,	40.079205E-9
1.561836E+3,	40.019985E-9
1.561840E+3,	39.889621E-9
1.561844E+3,	39.765936E-9
1.561848E+3,	39.509647E-9
1.561852E+3,	39.262172E-9
1.561856E+3,	39.037751E-9
1.561860E+3,	38.777970E-9
1.561864E+3,	38.448972E-9
1.561868E+3,	38.140301E-9
1.561872E+3,	37.890722E-9
1.561876E+3,	37.588426E-9
1.561880E+3,	37.388237E-9
1.561884E+3,	37.254690E-9
1.561888E+3,	37.010410E-9
1.561892E+3,	36.861697E-9
1.561896E+3,	36.717314E-9
1.561900E+3,	36.527334E-9
1.561904E+3,	36.361061E-9
1.561908E+3,	36.210021E-9
1.561912E+3,	36.006579E-9
1.561916E+3,	35.737529E-9
1.561920E+3,	35.463794E-9
1.561924E+3,	35.183328E-9
1.561928E+3,	34.749433E-9
1.561932E+3,	34.305447E-9
1.561936E+3,	33.934726E-9
1.561940E+3,	33.355927E-9
1.561944E+3,	32.865977E-9
1.561948E+3,	32.517621E-9
1.561952E+3,	32.079269E-9
1.561956E+3,	31.688032E-9
1.561960E+3,	31.410495E-9
1.561964E+3,	31.095491E-9
1.561968E+3,	30.816479E-9
1.561972E+3,	30.591544E-9
1.561976E+3,	30.381025E-9
1.561980E+3,	30.186785E-9
1.561984E+3,	30.028951E-9
1.561988E+3,	29.800199E-9
1.561992E+3,	29.562464E-9
1.561996E+3,	29.347827E-9
1.562000E+3,	28.997368E-9
1.562004E+3,	28.681053E-9
1.562008E+3,	28.373894E-9
1.562012E+3,	28.017542E-9
1.562016E+3,	27.599958E-9
1.562020E+3,	27.201458E-9
1.562024E+3,	26.881712E-9
1.562028E+3,	26.525970E-9
1.562032E+3,	26.195681E-9
1.562036E+3,	25.935645E-9
1.562040E+3,	25.671985E-9
1.562044E+3,	25.465781E-9
1.562048E+3,	25.291169E-9
1.562052E+3,	25.128605E-9
1.562056E+3,	24.993680E-9
1.562060E+3,	24.839247E-9
1.562064E+3,	24.651532E-9
1.562068E+3,	24.473981E-9
1.562072E+3,	24.305554E-9
1.562076E+3,	24.047984E-9
1.562080E+3,	23.743698E-9
1.562084E+3,	23.552888E-9
1.562088E+3,	23.195294E-9
1.562092E+3,	22.840918E-9
1.562096E+3,	22.555417E-9
1.562100E+3,	22.146563E-9
1.562104E+3,	21.710008E-9
1.562108E+3,	21.391319E-9
1.562112E+3,	20.972099E-9
1.562116E+3,	20.615225E-9
1.562120E+3,	20.327510E-9
1.562124E+3,	20.054121E-9
1.562128E+3,	19.801586E-9
1.562132E+3,	19.606969E-9
1.562136E+3,	19.392307E-9
1.562140E+3,	19.206548E-9
1.562144E+3,	19.006310E-9
1.562148E+3,	18.813941E-9
1.562152E+3,	18.583366E-9
1.562156E+3,	18.357580E-9
1.562160E+3,	18.071937E-9
1.562164E+3,	17.809757E-9
1.562168E+3,	17.552192E-9
1.562172E+3,	17.197561E-9
1.562176E+3,	16.915797E-9
1.562180E+3,	16.657109E-9
1.562184E+3,	16.269816E-9
1.562188E+3,	15.988989E-9
1.562192E+3,	15.801318E-9
1.562196E+3,	15.522910E-9
1.562200E+3,	15.327767E-9
1.562204E+3,	15.164569E-9
1.562208E+3,	14.969277E-9
1.562212E+3,	14.812774E-9
1.562216E+3,	14.685404E-9
1.562220E+3,	14.559642E-9
1.562224E+3,	14.433998E-9
1.562228E+3,	14.324061E-9
1.562232E+3,	14.170636E-9
1.562236E+3,	13.988199E-9
1.562240E+3,	13.843449E-9
1.562244E+3,	13.628565E-9
1.562248E+3,	13.375968E-9
1.562252E+3,	13.181437E-9
1.562256E+3,	12.988123E-9
1.562260E+3,	12.694273E-9
1.562264E+3,	12.430908E-9
1.562268E+3,	12.235438E-9
1.562272E+3,	11.995020E-9
1.562276E+3,	11.758902E-9
1.562280E+3,	11.575569E-9
1.562284E+3,	11.336745E-9
1.562288E+3,	11.115479E-9
1.562292E+3,	10.946385E-9
1.562296E+3,	10.727617E-9
1.562300E+3,	10.509582E-9
1.562304E+3,	10.353221E-9
1.562308E+3,	10.131046E-9
1.562312E+3,	9.932635E-9
1.562316E+3,	9.756382E-9
1.562320E+3,	9.562035E-9
1.562324E+3,	9.368756E-9
1.562328E+3,	9.221943E-9
1.562332E+3,	9.013204E-9
1.562336E+3,	8.810531E-9
1.562340E+3,	8.675508E-9
1.562344E+3,	8.433850E-9
1.562348E+3,	8.239039E-9
1.562352E+3,	8.091405E-9
1.562356E+3,	7.915384E-9
1.562360E+3,	7.758416E-9
1.562364E+3,	7.617541E-9
1.562368E+3,	7.474407E-9
1.562372E+3,	7.372463E-9
1.562376E+3,	7.275278E-9
1.562380E+3,	7.142614E-9
1.562384E+3,	7.050297E-9
1.562388E+3,	6.941061E-9
1.562392E+3,	6.817169E-9
1.562396E+3,	6.710783E-9
1.562400E+3,	6.645063E-9
1.562404E+3,	6.482512E-9
1.562408E+3,	6.356130E-9
1.562412E+3,	6.261521E-9
1.562416E+3,	6.108536E-9
1.562420E+3,	5.957585E-9
1.562424E+3,	5.854686E-9
1.562428E+3,	5.713247E-9
1.562432E+3,	5.587549E-9
1.562436E+3,	5.479371E-9
1.562440E+3,	5.352401E-9
1.562444E+3,	5.209521E-9
1.562448E+3,	5.121113E-9
1.562452E+3,	4.999284E-9
1.562456E+3,	4.889366E-9
1.562460E+3,	4.778559E-9
1.562464E+3,	4.653559E-9
1.562468E+3,	4.538588E-9
1.562472E+3,	4.445851E-9
1.562476E+3,	4.307620E-9
1.562480E+3,	4.159381E-9
1.562484E+3,	4.047795E-9
1.562488E+3,	3.895041E-9
1.562492E+3,	3.772085E-9
1.562496E+3,	3.677345E-9
1.562500E+3,	3.538816E-9
1.562504E+3,	3.465892E-9
1.562508E+3,	3.368790E-9
1.562512E+3,	3.293797E-9
1.562516E+3,	3.177922E-9
1.562520E+3,	3.103712E-9
1.562524E+3,	3.038622E-9
1.562528E+3,	2.974825E-9
1.562532E+3,	2.907817E-9
1.562536E+3,	2.856889E-9
1.562540E+3,	2.804624E-9
1.562544E+3,	2.715379E-9
1.562548E+3,	2.694320E-9
1.562552E+3,	2.638445E-9
1.562556E+3,	2.567787E-9
1.562560E+3,	2.516057E-9
1.562564E+3,	2.454936E-9
1.562568E+3,	2.410093E-9
1.562572E+3,	2.369319E-9
1.562576E+3,	2.297546E-9
1.562580E+3,	2.252051E-9
1.562584E+3,	2.189168E-9
1.562588E+3,	2.123277E-9
1.562592E+3,	2.077219E-9
1.562596E+3,	2.034997E-9
1.562600E+3,	2.000537E-9
1.562604E+3,	1.951124E-9
1.562608E+3,	1.917589E-9
1.562612E+3,	1.870282E-9
1.562616E+3,	1.832209E-9
1.562620E+3,	1.792228E-9
1.562624E+3,	1.746513E-9
1.562628E+3,	1.714814E-9
1.562632E+3,	1.656677E-9
1.562636E+3,	1.616404E-9
1.562640E+3,	1.575063E-9
1.562644E+3,	1.538939E-9
1.562648E+3,	1.483174E-9
1.562652E+3,	1.450442E-9
1.562656E+3,	1.409266E-9
1.562660E+3,	1.345498E-9
1.562664E+3,	1.290272E-9
1.562668E+3,	1.268694E-9
1.562672E+3,	1.219397E-9
1.562676E+3,	1.199744E-9
1.562680E+3,	1.168241E-9
1.562684E+3,	1.155711E-9
1.562688E+3,	1.135144E-9
1.562692E+3,	1.110197E-9
1.562696E+3,	1.087030E-9
1.562700E+3,	1.052939E-9
1.562704E+3,	1.042714E-9
1.562708E+3,	1.015664E-9
1.562712E+3,	1.003520E-9
1.562716E+3,	989.489037E-12
1.562720E+3,	964.338642E-12
1.562724E+3,	958.568735E-12
1.562728E+3,	939.142287E-12
1.562732E+3,	915.668809E-12
1.562736E+3,	915.516033E-12
1.562740E+3,	884.401142E-12
1.562744E+3,	884.291347E-12
1.562748E+3,	878.253680E-12
1.562752E+3,	868.565577E-12
1.562756E+3,	843.634592E-12
1.562760E+3,	852.335662E-12
1.562764E+3,	839.804048E-12
1.562768E+3,	829.877606E-12
1.562772E+3,	816.123062E-12
1.562776E+3,	825.267924E-12
1.562780E+3,	816.377767E-12
1.562784E+3,	798.144104E-12
1.562788E+3,	814.223692E-12
1.562792E+3,	800.855469E-12
1.562796E+3,	782.028592E-12
1.562800E+3,	767.891958E-12
1.562804E+3,	756.406794E-12
1.562808E+3,	754.591557E-12
1.562812E+3,	725.539839E-12
1.562816E+3,	725.797782E-12
1.562820E+3,	717.242830E-12
1.562824E+3,	694.538593E-12
1.562828E+3,	710.577562E-12
1.562832E+3,	687.242815E-12
1.562836E+3,	670.461216E-12
1.562840E+3,	655.365479E-12
1.562844E+3,	634.372693E-12
1.562848E+3,	656.193581E-12
1.562852E+3,	637.651216E-12
1.562856E+3,	641.719993E-12
1.562860E+3,	605.589395E-12
1.562864E+3,	605.361712E-12
1.562868E+3,	618.725945E-12
1.562872E+3,	611.039267E-12
1.562876E+3,	600.836331E-12
1.562880E+3,	603.796501E-12
1.562884E+3,	609.100560E-12
1.562888E+3,	592.976502E-12
1.562892E+3,	573.998115E-12
1.562896E+3,	578.466350E-12
1.562900E+3,	587.264408E-12
1.562904E+3,	565.365160E-12
1.562908E+3,	584.215839E-12
1.562912E+3,	602.519013E-12
1.562916E+3,	579.273567E-12
1.562920E+3,	559.934911E-12
1.562924E+3,	583.410938E-12
1.562928E+3,	587.182034E-12
1.562932E+3,	583.758733E-12
1.562936E+3,	593.554755E-12
1.562940E+3,	575.794996E-12
1.562944E+3,	585.149385E-12
1.562948E+3,	575.693889E-12
1.562952E+3,	574.525342E-12
1.562956E+3,	579.035446E-12
1.562960E+3,	557.277992E-12
1.562964E+3,	557.587393E-12
1.562968E+3,	583.397259E-12
1.562972E+3,	567.293277E-12
1.562976E+3,	549.911836E-12
1.562980E+3,	557.550221E-12
1.562984E+3,	547.537322E-12
1.562988E+3,	555.429788E-12
1.562992E+3,	555.761006E-12
1.562996E+3,	536.340701E-12
1.563000E+3,	539.369953E-12
