YOKOGAWA AQ6370D - S/N: 91S206859
#Date: 20/10/2023 Time: 12:46:35,	
A_WL(nm),	A_I(mW)
1.547500E+3,	10.238482E-12
1.547504E+3,	0.000000E+0
1.547508E+3,	21.869971E-12
1.547512E+3,	20.510222E-12
1.547516E+3,	895.684039E-15
1.547520E+3,	0.000000E+0
1.547524E+3,	20.963470E-12
1.547528E+3,	13.040658E-12
1.547532E+3,	19.985172E-12
1.547536E+3,	16.890813E-12
1.547540E+3,	3.284804E-12
1.547544E+3,	29.766680E-12
1.547548E+3,	5.770525E-12
1.547552E+3,	0.000000E+0
1.547556E+3,	0.000000E+0
1.547560E+3,	0.000000E+0
1.547564E+3,	0.000000E+0
1.547568E+3,	8.127425E-12
1.547572E+3,	16.467230E-12
1.547576E+3,	6.104327E-12
1.547580E+3,	9.239081E-12
1.547584E+3,	2.924112E-12
1.547588E+3,	0.000000E+0
1.547592E+3,	0.000000E+0
1.547596E+3,	19.631450E-12
1.547600E+3,	0.000000E+0
1.547604E+3,	0.000000E+0
1.547608E+3,	0.000000E+0
1.547612E+3,	4.284848E-12
1.547616E+3,	1.766331E-12
1.547620E+3,	9.401553E-12
1.547624E+3,	12.469169E-12
1.547628E+3,	10.196593E-12
1.547632E+3,	1.909271E-12
1.547636E+3,	0.000000E+0
1.547640E+3,	4.404534E-12
1.547644E+3,	16.235276E-12
1.547648E+3,	0.000000E+0
1.547652E+3,	1.582856E-12
1.547656E+3,	11.149171E-12
1.547660E+3,	4.797379E-12
1.547664E+3,	0.000000E+0
1.547668E+3,	16.434750E-12
1.547672E+3,	8.618921E-12
1.547676E+3,	0.000000E+0
1.547680E+3,	5.415849E-12
1.547684E+3,	3.849628E-12
1.547688E+3,	440.401663E-15
1.547692E+3,	1.455916E-12
1.547696E+3,	4.313651E-12
1.547700E+3,	0.000000E+0
1.547704E+3,	4.809291E-12
1.547708E+3,	0.000000E+0
1.547712E+3,	0.000000E+0
1.547716E+3,	7.743667E-12
1.547720E+3,	7.496327E-12
1.547724E+3,	0.000000E+0
1.547728E+3,	0.000000E+0
1.547732E+3,	8.675317E-12
1.547736E+3,	0.000000E+0
1.547740E+3,	2.644791E-12
1.547744E+3,	1.891573E-12
1.547748E+3,	4.485358E-12
1.547752E+3,	20.954989E-12
1.547756E+3,	0.000000E+0
1.547760E+3,	11.167911E-12
1.547764E+3,	20.519667E-12
1.547768E+3,	0.000000E+0
1.547772E+3,	0.000000E+0
1.547776E+3,	6.632087E-12
1.547780E+3,	0.000000E+0
1.547784E+3,	0.000000E+0
1.547788E+3,	4.288012E-12
1.547792E+3,	23.222284E-12
1.547796E+3,	0.000000E+0
1.547800E+3,	5.994470E-12
1.547804E+3,	9.763622E-12
1.547808E+3,	6.825204E-12
1.547812E+3,	5.718767E-12
1.547816E+3,	0.000000E+0
1.547820E+3,	0.000000E+0
1.547824E+3,	11.253555E-12
1.547828E+3,	1.783152E-12
1.547832E+3,	0.000000E+0
1.547836E+3,	0.000000E+0
1.547840E+3,	4.547503E-12
1.547844E+3,	30.230649E-12
1.547848E+3,	0.000000E+0
1.547852E+3,	8.858742E-12
1.547856E+3,	10.206626E-12
1.547860E+3,	13.622591E-12
1.547864E+3,	0.000000E+0
1.547868E+3,	18.030882E-12
1.547872E+3,	0.000000E+0
1.547876E+3,	1.689140E-12
1.547880E+3,	0.000000E+0
1.547884E+3,	0.000000E+0
1.547888E+3,	0.000000E+0
1.547892E+3,	0.000000E+0
1.547896E+3,	0.000000E+0
1.547900E+3,	1.316222E-12
1.547904E+3,	0.000000E+0
1.547908E+3,	17.639729E-12
1.547912E+3,	10.564141E-12
1.547916E+3,	18.351558E-12
1.547920E+3,	0.000000E+0
1.547924E+3,	0.000000E+0
1.547928E+3,	0.000000E+0
1.547932E+3,	1.238876E-12
1.547936E+3,	0.000000E+0
1.547940E+3,	0.000000E+0
1.547944E+3,	38.948039E-12
1.547948E+3,	0.000000E+0
1.547952E+3,	0.000000E+0
1.547956E+3,	1.280404E-12
1.547960E+3,	0.000000E+0
1.547964E+3,	1.747270E-12
1.547968E+3,	1.674683E-12
1.547972E+3,	4.033756E-12
1.547976E+3,	32.394939E-12
1.547980E+3,	170.416705E-15
1.547984E+3,	0.000000E+0
1.547988E+3,	0.000000E+0
1.547992E+3,	0.000000E+0
1.547996E+3,	0.000000E+0
1.548000E+3,	37.373095E-12
1.548004E+3,	20.420241E-12
1.548008E+3,	4.977384E-12
1.548012E+3,	0.000000E+0
1.548016E+3,	1.844833E-12
1.548020E+3,	0.000000E+0
1.548024E+3,	7.447052E-12
1.548028E+3,	19.299587E-12
1.548032E+3,	0.000000E+0
1.548036E+3,	13.253689E-12
1.548040E+3,	8.612341E-12
1.548044E+3,	2.782273E-12
1.548048E+3,	0.000000E+0
1.548052E+3,	0.000000E+0
1.548056E+3,	0.000000E+0
1.548060E+3,	0.000000E+0
1.548064E+3,	4.143590E-12
1.548068E+3,	0.000000E+0
1.548072E+3,	5.087540E-12
1.548076E+3,	0.000000E+0
1.548080E+3,	32.502765E-12
1.548084E+3,	7.757404E-12
1.548088E+3,	8.647002E-12
1.548092E+3,	12.405104E-12
1.548096E+3,	5.834879E-12
1.548100E+3,	5.124919E-12
1.548104E+3,	0.000000E+0
1.548108E+3,	1.076336E-12
1.548112E+3,	4.011051E-12
1.548116E+3,	8.403342E-12
1.548120E+3,	0.000000E+0
1.548124E+3,	22.562614E-12
1.548128E+3,	21.142562E-12
1.548132E+3,	8.214825E-12
1.548136E+3,	19.097830E-12
1.548140E+3,	8.067898E-12
1.548144E+3,	2.783554E-12
1.548148E+3,	2.493007E-12
1.548152E+3,	0.000000E+0
1.548156E+3,	13.176383E-12
1.548160E+3,	0.000000E+0
1.548164E+3,	14.732345E-12
1.548168E+3,	23.380424E-12
1.548172E+3,	0.000000E+0
1.548176E+3,	7.688323E-12
1.548180E+3,	0.000000E+0
1.548184E+3,	10.412839E-12
1.548188E+3,	0.000000E+0
1.548192E+3,	6.732354E-12
1.548196E+3,	0.000000E+0
1.548200E+3,	22.909284E-12
1.548204E+3,	15.627927E-12
1.548208E+3,	8.613010E-12
1.548212E+3,	0.000000E+0
1.548216E+3,	6.180758E-12
1.548220E+3,	0.000000E+0
1.548224E+3,	1.294794E-12
1.548228E+3,	23.743663E-12
1.548232E+3,	0.000000E+0
1.548236E+3,	22.896390E-12
1.548240E+3,	26.311904E-12
1.548244E+3,	0.000000E+0
1.548248E+3,	692.354322E-15
1.548252E+3,	11.094132E-12
1.548256E+3,	16.392383E-12
1.548260E+3,	12.086657E-12
1.548264E+3,	2.103017E-12
1.548268E+3,	10.428624E-12
1.548272E+3,	1.949127E-12
1.548276E+3,	22.169688E-12
1.548280E+3,	18.631291E-12
1.548284E+3,	27.744981E-12
1.548288E+3,	23.308137E-12
1.548292E+3,	51.849352E-12
1.548296E+3,	48.396701E-12
1.548300E+3,	40.782715E-12
1.548304E+3,	67.401115E-12
1.548308E+3,	67.106394E-12
1.548312E+3,	58.990872E-12
1.548316E+3,	81.542079E-12
1.548320E+3,	83.886229E-12
1.548324E+3,	87.006450E-12
1.548328E+3,	80.761636E-12
1.548332E+3,	62.548765E-12
1.548336E+3,	95.792646E-12
1.548340E+3,	73.363464E-12
1.548344E+3,	68.243199E-12
1.548348E+3,	73.249635E-12
1.548352E+3,	67.638050E-12
1.548356E+3,	53.079079E-12
1.548360E+3,	42.557315E-12
1.548364E+3,	59.267514E-12
1.548368E+3,	23.543098E-12
1.548372E+3,	56.532517E-12
1.548376E+3,	48.774282E-12
1.548380E+3,	38.771266E-12
1.548384E+3,	54.549353E-12
1.548388E+3,	96.123767E-12
1.548392E+3,	102.359575E-12
1.548396E+3,	143.919440E-12
1.548400E+3,	177.769267E-12
1.548404E+3,	227.988192E-12
1.548408E+3,	259.654453E-12
1.548412E+3,	304.359501E-12
1.548416E+3,	332.975089E-12
1.548420E+3,	380.512977E-12
1.548424E+3,	407.330101E-12
1.548428E+3,	423.894041E-12
1.548432E+3,	458.072879E-12
1.548436E+3,	462.869907E-12
1.548440E+3,	466.935795E-12
1.548444E+3,	470.360917E-12
1.548448E+3,	454.559673E-12
1.548452E+3,	426.592105E-12
1.548456E+3,	368.529425E-12
1.548460E+3,	348.459243E-12
1.548464E+3,	302.084749E-12
1.548468E+3,	258.332956E-12
1.548472E+3,	243.039177E-12
1.548476E+3,	199.393352E-12
1.548480E+3,	173.422152E-12
1.548484E+3,	172.338371E-12
1.548488E+3,	163.320165E-12
1.548492E+3,	219.886543E-12
1.548496E+3,	256.805015E-12
1.548500E+3,	343.417474E-12
1.548504E+3,	456.410422E-12
1.548508E+3,	549.462952E-12
1.548512E+3,	675.455125E-12
1.548516E+3,	851.673214E-12
1.548520E+3,	1.005281E-9
1.548524E+3,	1.126568E-9
1.548528E+3,	1.279206E-9
1.548532E+3,	1.420476E-9
1.548536E+3,	1.557021E-9
1.548540E+3,	1.668616E-9
1.548544E+3,	1.712852E-9
1.548548E+3,	1.751816E-9
1.548552E+3,	1.752475E-9
1.548556E+3,	1.735997E-9
1.548560E+3,	1.661064E-9
1.548564E+3,	1.578043E-9
1.548568E+3,	1.458535E-9
1.548572E+3,	1.295733E-9
1.548576E+3,	1.119583E-9
1.548580E+3,	975.026775E-12
1.548584E+3,	857.356214E-12
1.548588E+3,	715.743868E-12
1.548592E+3,	599.743742E-12
1.548596E+3,	538.608306E-12
1.548600E+3,	576.756732E-12
1.548604E+3,	655.968082E-12
1.548608E+3,	802.835380E-12
1.548612E+3,	1.076517E-9
1.548616E+3,	1.377491E-9
1.548620E+3,	1.714301E-9
1.548624E+3,	2.112941E-9
1.548628E+3,	2.512145E-9
1.548632E+3,	3.053127E-9
1.548636E+3,	3.541653E-9
1.548640E+3,	3.912809E-9
1.548644E+3,	4.293988E-9
1.548648E+3,	4.616572E-9
1.548652E+3,	4.898973E-9
1.548656E+3,	5.094042E-9
1.548660E+3,	5.116157E-9
1.548664E+3,	5.124984E-9
1.548668E+3,	4.997260E-9
1.548672E+3,	4.767376E-9
1.548676E+3,	4.523492E-9
1.548680E+3,	4.169953E-9
1.548684E+3,	3.754186E-9
1.548688E+3,	3.209970E-9
1.548692E+3,	2.705164E-9
1.548696E+3,	2.305031E-9
1.548700E+3,	1.930259E-9
1.548704E+3,	1.647950E-9
1.548708E+3,	1.482816E-9
1.548712E+3,	1.448033E-9
1.548716E+3,	1.616473E-9
1.548720E+3,	1.943563E-9
1.548724E+3,	2.519201E-9
1.548728E+3,	3.328010E-9
1.548732E+3,	4.283361E-9
1.548736E+3,	5.168983E-9
1.548740E+3,	6.230936E-9
1.548744E+3,	7.335579E-9
1.548748E+3,	8.748133E-9
1.548752E+3,	10.001535E-9
1.548756E+3,	10.859530E-9
1.548760E+3,	11.630886E-9
1.548764E+3,	12.249779E-9
1.548768E+3,	12.620964E-9
1.548772E+3,	12.732980E-9
1.548776E+3,	12.613434E-9
1.548780E+3,	12.266598E-9
1.548784E+3,	11.533710E-9
1.548788E+3,	10.676396E-9
1.548792E+3,	9.837032E-9
1.548796E+3,	8.787945E-9
1.548800E+3,	7.659649E-9
1.548804E+3,	6.334779E-9
1.548808E+3,	5.228482E-9
1.548812E+3,	4.413168E-9
1.548816E+3,	3.706018E-9
1.548820E+3,	3.247014E-9
1.548824E+3,	3.131550E-9
1.548828E+3,	3.471357E-9
1.548832E+3,	4.110162E-9
1.548836E+3,	5.169689E-9
1.548840E+3,	6.625928E-9
1.548844E+3,	8.842443E-9
1.548848E+3,	11.217352E-9
1.548852E+3,	13.371006E-9
1.548856E+3,	15.792571E-9
1.548860E+3,	18.637287E-9
1.548864E+3,	21.057535E-9
1.548868E+3,	22.798542E-9
1.548872E+3,	24.394592E-9
1.548876E+3,	25.578740E-9
1.548880E+3,	26.412747E-9
1.548884E+3,	26.545495E-9
1.548888E+3,	26.159606E-9
1.548892E+3,	25.276067E-9
1.548896E+3,	23.897821E-9
1.548900E+3,	21.864835E-9
1.548904E+3,	19.619975E-9
1.548908E+3,	17.443797E-9
1.548912E+3,	14.996360E-9
1.548916E+3,	12.648738E-9
1.548920E+3,	10.203371E-9
1.548924E+3,	8.323505E-9
1.548928E+3,	7.091785E-9
1.548932E+3,	6.183997E-9
1.548936E+3,	5.906894E-9
1.548940E+3,	6.557558E-9
1.548944E+3,	7.936283E-9
1.548948E+3,	9.729303E-9
1.548952E+3,	12.338705E-9
1.548956E+3,	16.179716E-9
1.548960E+3,	20.351690E-9
1.548964E+3,	24.170610E-9
1.548968E+3,	28.469338E-9
1.548972E+3,	32.515803E-9
1.548976E+3,	37.070115E-9
1.548980E+3,	40.783901E-9
1.548984E+3,	43.359423E-9
1.548988E+3,	45.549708E-9
1.548992E+3,	46.790444E-9
1.548996E+3,	47.056242E-9
1.549000E+3,	46.273539E-9
1.549004E+3,	44.764677E-9
1.549008E+3,	42.273997E-9
1.549012E+3,	39.094862E-9
1.549016E+3,	34.670464E-9
1.549020E+3,	30.316886E-9
1.549024E+3,	26.647463E-9
1.549028E+3,	22.658880E-9
1.549032E+3,	18.277052E-9
1.549036E+3,	14.796127E-9
1.549040E+3,	12.678006E-9
1.549044E+3,	11.041731E-9
1.549048E+3,	10.272515E-9
1.549052E+3,	10.673618E-9
1.549056E+3,	12.225445E-9
1.549060E+3,	14.581450E-9
1.549064E+3,	18.428900E-9
1.549068E+3,	23.229942E-9
1.549072E+3,	29.896872E-9
1.549076E+3,	36.854254E-9
1.549080E+3,	42.720186E-9
1.549084E+3,	49.065107E-9
1.549088E+3,	56.269230E-9
1.549092E+3,	62.395819E-9
1.549096E+3,	66.686665E-9
1.549100E+3,	70.241297E-9
1.549104E+3,	72.458482E-9
1.549108E+3,	73.236425E-9
1.549112E+3,	72.453561E-9
1.549116E+3,	70.470187E-9
1.549120E+3,	66.997728E-9
1.549124E+3,	61.414519E-9
1.549128E+3,	55.582003E-9
1.549132E+3,	50.495757E-9
1.549136E+3,	44.267683E-9
1.549140E+3,	37.922232E-9
1.549144E+3,	30.747381E-9
1.549148E+3,	24.896743E-9
1.549152E+3,	20.962010E-9
1.549156E+3,	17.552187E-9
1.549160E+3,	15.588115E-9
1.549164E+3,	15.305226E-9
1.549168E+3,	16.890087E-9
1.549172E+3,	19.814226E-9
1.549176E+3,	24.497055E-9
1.549180E+3,	32.109455E-9
1.549184E+3,	40.549132E-9
1.549188E+3,	48.033628E-9
1.549192E+3,	56.494232E-9
1.549196E+3,	65.216098E-9
1.549200E+3,	75.974188E-9
1.549204E+3,	85.201409E-9
1.549208E+3,	91.109234E-9
1.549212E+3,	96.334448E-9
1.549216E+3,	99.883037E-9
1.549220E+3,	101.745099E-9
1.549224E+3,	101.241761E-9
1.549228E+3,	98.753500E-9
1.549232E+3,	94.053546E-9
1.549236E+3,	86.329698E-9
1.549240E+3,	77.944509E-9
1.549244E+3,	70.424181E-9
1.549248E+3,	61.391372E-9
1.549252E+3,	51.935341E-9
1.549256E+3,	41.431755E-9
1.549260E+3,	33.033245E-9
1.549264E+3,	27.481318E-9
1.549268E+3,	22.918911E-9
1.549272E+3,	19.930597E-9
1.549276E+3,	19.459679E-9
1.549280E+3,	21.202926E-9
1.549284E+3,	25.066477E-9
1.549288E+3,	30.616773E-9
1.549292E+3,	39.481787E-9
1.549296E+3,	49.342388E-9
1.549300E+3,	58.937508E-9
1.549304E+3,	70.374754E-9
1.549308E+3,	82.030330E-9
1.549312E+3,	95.894176E-9
1.549316E+3,	107.395893E-9
1.549320E+3,	115.360214E-9
1.549324E+3,	122.373181E-9
1.549328E+3,	128.086211E-9
1.549332E+3,	130.335536E-9
1.549336E+3,	129.301324E-9
1.549340E+3,	125.534580E-9
1.549344E+3,	119.387691E-9
1.549348E+3,	110.093743E-9
1.549352E+3,	99.603173E-9
1.549356E+3,	89.526073E-9
1.549360E+3,	77.538565E-9
1.549364E+3,	65.313614E-9
1.549368E+3,	51.927214E-9
1.549372E+3,	41.408561E-9
1.549376E+3,	34.561306E-9
1.549380E+3,	28.651209E-9
1.549384E+3,	24.165763E-9
1.549388E+3,	23.144004E-9
1.549392E+3,	25.081406E-9
1.549396E+3,	29.468575E-9
1.549400E+3,	35.991182E-9
1.549404E+3,	46.965216E-9
1.549408E+3,	59.106484E-9
1.549412E+3,	70.732807E-9
1.549416E+3,	84.677974E-9
1.549420E+3,	98.543310E-9
1.549424E+3,	113.797737E-9
1.549428E+3,	126.854652E-9
1.549432E+3,	136.245514E-9
1.549436E+3,	144.466882E-9
1.549440E+3,	150.574255E-9
1.549444E+3,	152.748089E-9
1.549448E+3,	151.401082E-9
1.549452E+3,	147.295032E-9
1.549456E+3,	140.472023E-9
1.549460E+3,	128.739703E-9
1.549464E+3,	115.534782E-9
1.549468E+3,	103.592002E-9
1.549472E+3,	89.838250E-9
1.549476E+3,	73.275056E-9
1.549480E+3,	59.066852E-9
1.549484E+3,	48.594376E-9
1.549488E+3,	38.878406E-9
1.549492E+3,	31.529808E-9
1.549496E+3,	26.594848E-9
1.549500E+3,	25.874118E-9
1.549504E+3,	28.044676E-9
1.549508E+3,	32.904838E-9
1.549512E+3,	40.551893E-9
1.549516E+3,	52.919450E-9
1.549520E+3,	66.484573E-9
1.549524E+3,	78.661052E-9
1.549528E+3,	92.263174E-9
1.549532E+3,	108.494980E-9
1.549536E+3,	123.072528E-9
1.549540E+3,	134.079623E-9
1.549544E+3,	144.973874E-9
1.549548E+3,	153.703644E-9
1.549552E+3,	160.117227E-9
1.549556E+3,	162.274093E-9
1.549560E+3,	160.942970E-9
1.549564E+3,	156.541397E-9
1.549568E+3,	149.095388E-9
1.549572E+3,	136.480186E-9
1.549576E+3,	122.069418E-9
1.549580E+3,	108.942165E-9
1.549584E+3,	94.224672E-9
1.549588E+3,	77.102669E-9
1.549592E+3,	62.385044E-9
1.549596E+3,	51.520583E-9
1.549600E+3,	40.744812E-9
1.549604E+3,	32.576407E-9
1.549608E+3,	27.413676E-9
1.549612E+3,	26.167749E-9
1.549616E+3,	28.025270E-9
1.549620E+3,	32.635666E-9
1.549624E+3,	41.921644E-9
1.549628E+3,	53.396242E-9
1.549632E+3,	64.746676E-9
1.549636E+3,	78.244204E-9
1.549640E+3,	91.772503E-9
1.549644E+3,	108.074478E-9
1.549648E+3,	122.388084E-9
1.549652E+3,	133.014712E-9
1.549656E+3,	143.349071E-9
1.549660E+3,	151.432996E-9
1.549664E+3,	157.363603E-9
1.549668E+3,	159.405642E-9
1.549672E+3,	158.364804E-9
1.549676E+3,	154.331472E-9
1.549680E+3,	145.334786E-9
1.549684E+3,	134.121676E-9
1.549688E+3,	123.018196E-9
1.549692E+3,	109.608646E-9
1.549696E+3,	95.755356E-9
1.549700E+3,	79.114584E-9
1.549704E+3,	63.686871E-9
1.549708E+3,	52.075451E-9
1.549712E+3,	41.574689E-9
1.549716E+3,	33.560361E-9
1.549720E+3,	27.343323E-9
1.549724E+3,	24.893249E-9
1.549728E+3,	25.786431E-9
1.549732E+3,	29.749858E-9
1.549736E+3,	38.314378E-9
1.549740E+3,	48.717551E-9
1.549744E+3,	58.663402E-9
1.549748E+3,	70.373734E-9
1.549752E+3,	82.930329E-9
1.549756E+3,	98.802930E-9
1.549760E+3,	112.729905E-9
1.549764E+3,	122.693706E-9
1.549768E+3,	132.010363E-9
1.549772E+3,	140.983760E-9
1.549776E+3,	146.978281E-9
1.549780E+3,	149.534409E-9
1.549784E+3,	149.876290E-9
1.549788E+3,	147.499721E-9
1.549792E+3,	141.078586E-9
1.549796E+3,	132.356160E-9
1.549800E+3,	123.005444E-9
1.549804E+3,	111.132652E-9
1.549808E+3,	98.307703E-9
1.549812E+3,	82.156393E-9
1.549816E+3,	67.454381E-9
1.549820E+3,	56.513326E-9
1.549824E+3,	45.650449E-9
1.549828E+3,	35.260488E-9
1.549832E+3,	28.289410E-9
1.549836E+3,	24.853410E-9
1.549840E+3,	23.525344E-9
1.549844E+3,	25.115324E-9
1.549848E+3,	30.677591E-9
1.549852E+3,	38.567408E-9
1.549856E+3,	46.854811E-9
1.549860E+3,	58.217538E-9
1.549864E+3,	70.874931E-9
1.549868E+3,	86.216006E-9
1.549872E+3,	100.037632E-9
1.549876E+3,	110.671268E-9
1.549880E+3,	121.166484E-9
1.549884E+3,	131.698766E-9
1.549888E+3,	139.397499E-9
1.549892E+3,	143.710000E-9
1.549896E+3,	146.110796E-9
1.549900E+3,	145.752039E-9
1.549904E+3,	141.793301E-9
1.549908E+3,	135.800165E-9
1.549912E+3,	128.712681E-9
1.549916E+3,	118.542574E-9
1.549920E+3,	106.518050E-9
1.549924E+3,	91.023247E-9
1.549928E+3,	77.203224E-9
1.549932E+3,	66.092757E-9
1.549936E+3,	53.826512E-9
1.549940E+3,	40.760785E-9
1.549944E+3,	31.632236E-9
1.549948E+3,	26.776182E-9
1.549952E+3,	23.877999E-9
1.549956E+3,	24.003989E-9
1.549960E+3,	27.717933E-9
1.549964E+3,	34.009965E-9
1.549968E+3,	41.719398E-9
1.549972E+3,	52.410939E-9
1.549976E+3,	67.144361E-9
1.549980E+3,	81.280899E-9
1.549984E+3,	92.450403E-9
1.549988E+3,	104.265573E-9
1.549992E+3,	115.303839E-9
1.549996E+3,	126.994633E-9
1.550000E+3,	135.680122E-9
1.550004E+3,	140.567523E-9
1.550008E+3,	143.595993E-9
1.550012E+3,	143.718805E-9
1.550016E+3,	141.022013E-9
1.550020E+3,	136.494396E-9
1.550024E+3,	129.365822E-9
1.550028E+3,	119.661086E-9
1.550032E+3,	105.329882E-9
1.550036E+3,	91.522474E-9
1.550040E+3,	80.421867E-9
1.550044E+3,	67.574038E-9
1.550048E+3,	52.655199E-9
1.550052E+3,	40.613232E-9
1.550056E+3,	33.038497E-9
1.550060E+3,	27.355700E-9
1.550064E+3,	24.261632E-9
1.550068E+3,	24.533172E-9
1.550072E+3,	28.294248E-9
1.550076E+3,	33.825431E-9
1.550080E+3,	42.096028E-9
1.550084E+3,	54.559626E-9
1.550088E+3,	67.161819E-9
1.550092E+3,	78.053048E-9
1.550096E+3,	90.593292E-9
1.550100E+3,	103.513513E-9
1.550104E+3,	118.305766E-9
1.550108E+3,	129.958515E-9
1.550112E+3,	137.093864E-9
1.550116E+3,	142.685117E-9
1.550120E+3,	146.101326E-9
1.550124E+3,	146.210399E-9
1.550128E+3,	143.401440E-9
1.550132E+3,	137.579556E-9
1.550136E+3,	129.021437E-9
1.550140E+3,	117.096678E-9
1.550144E+3,	104.587262E-9
1.550148E+3,	93.020058E-9
1.550152E+3,	80.036408E-9
1.550156E+3,	64.649019E-9
1.550160E+3,	51.679782E-9
1.550164E+3,	42.558434E-9
1.550168E+3,	34.472639E-9
1.550172E+3,	28.633407E-9
1.550176E+3,	24.716216E-9
1.550180E+3,	24.263294E-9
1.550184E+3,	26.732661E-9
1.550188E+3,	32.332760E-9
1.550192E+3,	42.553545E-9
1.550196E+3,	54.290629E-9
1.550200E+3,	65.096212E-9
1.550204E+3,	78.293876E-9
1.550208E+3,	92.079207E-9
1.550212E+3,	108.133017E-9
1.550216E+3,	121.325747E-9
1.550220E+3,	130.321811E-9
1.550224E+3,	138.704720E-9
1.550228E+3,	145.042113E-9
1.550232E+3,	147.937929E-9
1.550236E+3,	147.772710E-9
1.550240E+3,	144.904505E-9
1.550244E+3,	138.189867E-9
1.550248E+3,	129.691936E-9
1.550252E+3,	120.717034E-9
1.550256E+3,	109.287275E-9
1.550260E+3,	96.766043E-9
1.550264E+3,	81.161712E-9
1.550268E+3,	67.074897E-9
1.550272E+3,	56.330121E-9
1.550276E+3,	45.597086E-9
1.550280E+3,	35.253972E-9
1.550284E+3,	28.377926E-9
1.550288E+3,	25.311852E-9
1.550292E+3,	24.549374E-9
1.550296E+3,	26.719376E-9
1.550300E+3,	33.081042E-9
1.550304E+3,	41.683595E-9
1.550308E+3,	50.482907E-9
1.550312E+3,	62.354787E-9
1.550316E+3,	78.416207E-9
1.550320E+3,	93.547835E-9
1.550324E+3,	105.458887E-9
1.550328E+3,	117.136865E-9
1.550332E+3,	127.344800E-9
1.550336E+3,	137.262146E-9
1.550340E+3,	143.801723E-9
1.550344E+3,	146.652265E-9
1.550348E+3,	147.150020E-9
1.550352E+3,	144.136308E-9
1.550356E+3,	138.306487E-9
1.550360E+3,	131.558913E-9
1.550364E+3,	122.231421E-9
1.550368E+3,	111.261913E-9
1.550372E+3,	95.864862E-9
1.550376E+3,	80.832675E-9
1.550380E+3,	69.320249E-9
1.550384E+3,	57.753591E-9
1.550388E+3,	45.585342E-9
1.550392E+3,	36.006376E-9
1.550396E+3,	30.047780E-9
1.550400E+3,	25.900302E-9
1.550404E+3,	24.636686E-9
1.550408E+3,	26.739639E-9
1.550412E+3,	31.590729E-9
1.550416E+3,	38.093233E-9
1.550420E+3,	47.325459E-9
1.550424E+3,	60.851355E-9
1.550428E+3,	74.893541E-9
1.550432E+3,	86.890866E-9
1.550436E+3,	99.826420E-9
1.550440E+3,	112.231781E-9
1.550444E+3,	125.463578E-9
1.550448E+3,	135.939652E-9
1.550452E+3,	142.348036E-9
1.550456E+3,	146.884724E-9
1.550460E+3,	148.054682E-9
1.550464E+3,	145.715982E-9
1.550468E+3,	141.478059E-9
1.550472E+3,	134.218003E-9
1.550476E+3,	122.488192E-9
1.550480E+3,	109.673028E-9
1.550484E+3,	98.224252E-9
1.550488E+3,	85.683058E-9
1.550492E+3,	73.281554E-9
1.550496E+3,	59.023642E-9
1.550500E+3,	47.194984E-9
1.550504E+3,	38.738509E-9
1.550508E+3,	31.617458E-9
1.550512E+3,	26.794425E-9
1.550516E+3,	25.097587E-9
1.550520E+3,	26.122461E-9
1.550524E+3,	29.693696E-9
1.550528E+3,	35.873441E-9
1.550532E+3,	46.451648E-9
1.550536E+3,	58.279088E-9
1.550540E+3,	69.176166E-9
1.550544E+3,	82.083358E-9
1.550548E+3,	98.192700E-9
1.550552E+3,	112.355822E-9
1.550556E+3,	122.524857E-9
1.550560E+3,	132.502453E-9
1.550564E+3,	140.569508E-9
1.550568E+3,	146.824484E-9
1.550572E+3,	149.366643E-9
1.550576E+3,	149.106929E-9
1.550580E+3,	146.265481E-9
1.550584E+3,	138.894498E-9
1.550588E+3,	129.251007E-9
1.550592E+3,	119.459783E-9
1.550596E+3,	107.765042E-9
1.550600E+3,	95.411346E-9
1.550604E+3,	80.328020E-9
1.550608E+3,	66.140770E-9
1.550612E+3,	54.995906E-9
1.550616E+3,	44.474993E-9
1.550620E+3,	34.786385E-9
1.550624E+3,	28.684810E-9
1.550628E+3,	25.960997E-9
1.550632E+3,	25.216800E-9
1.550636E+3,	27.150449E-9
1.550640E+3,	33.162225E-9
1.550644E+3,	41.238088E-9
1.550648E+3,	49.561726E-9
1.550652E+3,	59.976809E-9
1.550656E+3,	73.835122E-9
1.550660E+3,	88.126403E-9
1.550664E+3,	100.034741E-9
1.550668E+3,	112.874807E-9
1.550672E+3,	124.341091E-9
1.550676E+3,	135.655015E-9
1.550680E+3,	143.527275E-9
1.550684E+3,	147.682096E-9
1.550688E+3,	149.606450E-9
1.550692E+3,	147.982130E-9
1.550696E+3,	143.057996E-9
1.550700E+3,	136.315918E-9
1.550704E+3,	126.955574E-9
1.550708E+3,	113.252713E-9
1.550712E+3,	99.233628E-9
1.550716E+3,	87.328850E-9
1.550720E+3,	73.959047E-9
1.550724E+3,	61.363153E-9
1.550728E+3,	47.904732E-9
1.550732E+3,	37.899181E-9
1.550736E+3,	31.882382E-9
1.550740E+3,	27.303922E-9
1.550744E+3,	25.348447E-9
1.550748E+3,	26.883453E-9
1.550752E+3,	30.833731E-9
1.550756E+3,	36.919134E-9
1.550760E+3,	45.113278E-9
1.550764E+3,	57.926695E-9
1.550768E+3,	71.597687E-9
1.550772E+3,	84.326578E-9
1.550776E+3,	98.545215E-9
1.550780E+3,	113.749052E-9
1.550784E+3,	126.166543E-9
1.550788E+3,	135.062880E-9
1.550792E+3,	143.144029E-9
1.550796E+3,	148.463242E-9
1.550800E+3,	150.548971E-9
1.550804E+3,	148.789842E-9
1.550808E+3,	144.971160E-9
1.550812E+3,	138.443393E-9
1.550816E+3,	127.092377E-9
1.550820E+3,	114.470415E-9
1.550824E+3,	102.942347E-9
1.550828E+3,	89.553430E-9
1.550832E+3,	76.398413E-9
1.550836E+3,	61.820267E-9
1.550840E+3,	49.806223E-9
1.550844E+3,	41.356343E-9
1.550848E+3,	33.614843E-9
1.550852E+3,	27.802189E-9
1.550856E+3,	25.971020E-9
1.550860E+3,	27.165961E-9
1.550864E+3,	31.004593E-9
1.550868E+3,	37.144391E-9
1.550872E+3,	47.427956E-9
1.550876E+3,	59.648508E-9
1.550880E+3,	71.078119E-9
1.550884E+3,	84.005423E-9
1.550888E+3,	99.006289E-9
1.550892E+3,	112.409854E-9
1.550896E+3,	122.605083E-9
1.550900E+3,	132.678437E-9
1.550904E+3,	140.981335E-9
1.550908E+3,	147.767850E-9
1.550912E+3,	150.879820E-9
1.550916E+3,	150.750525E-9
1.550920E+3,	148.070989E-9
1.550924E+3,	140.968192E-9
1.550928E+3,	131.039132E-9
1.550932E+3,	120.722060E-9
1.550936E+3,	108.237307E-9
1.550940E+3,	95.202672E-9
1.550944E+3,	79.262480E-9
1.550948E+3,	64.853080E-9
1.550952E+3,	54.162831E-9
1.550956E+3,	43.597376E-9
1.550960E+3,	34.444497E-9
1.550964E+3,	29.085002E-9
1.550968E+3,	27.207864E-9
1.550972E+3,	27.612338E-9
1.550976E+3,	31.557575E-9
1.550980E+3,	38.115886E-9
1.550984E+3,	45.963137E-9
1.550988E+3,	56.099285E-9
1.550992E+3,	67.379387E-9
1.550996E+3,	82.195958E-9
1.551000E+3,	95.793442E-9
1.551004E+3,	106.843428E-9
1.551008E+3,	118.802078E-9
1.551012E+3,	131.614105E-9
1.551016E+3,	140.926778E-9
1.551020E+3,	146.062621E-9
1.551024E+3,	149.647113E-9
1.551028E+3,	150.230993E-9
1.551032E+3,	147.467728E-9
1.551036E+3,	142.393321E-9
1.551040E+3,	134.182034E-9
1.551044E+3,	123.842529E-9
1.551048E+3,	110.038153E-9
1.551052E+3,	96.486784E-9
1.551056E+3,	84.736739E-9
1.551060E+3,	71.806869E-9
1.551064E+3,	57.211270E-9
1.551068E+3,	45.355161E-9
1.551072E+3,	37.657390E-9
1.551076E+3,	31.778791E-9
1.551080E+3,	28.282358E-9
1.551084E+3,	27.912885E-9
1.551088E+3,	30.598833E-9
1.551092E+3,	36.514247E-9
1.551096E+3,	44.578770E-9
1.551100E+3,	56.119127E-9
1.551104E+3,	68.930352E-9
1.551108E+3,	80.746858E-9
1.551112E+3,	94.349276E-9
1.551116E+3,	110.273467E-9
1.551120E+3,	123.251240E-9
1.551124E+3,	132.421158E-9
1.551128E+3,	140.924349E-9
1.551132E+3,	148.317013E-9
1.551136E+3,	152.412974E-9
1.551140E+3,	153.139619E-9
1.551144E+3,	151.408915E-9
1.551148E+3,	147.017055E-9
1.551152E+3,	138.906797E-9
1.551156E+3,	128.811136E-9
1.551160E+3,	118.470251E-9
1.551164E+3,	106.090284E-9
1.551168E+3,	90.108803E-9
1.551172E+3,	74.874702E-9
1.551176E+3,	63.521477E-9
1.551180E+3,	52.225069E-9
1.551184E+3,	41.139517E-9
1.551188E+3,	33.469446E-9
1.551192E+3,	29.886239E-9
1.551196E+3,	28.775387E-9
1.551200E+3,	30.558599E-9
1.551204E+3,	36.474607E-9
1.551208E+3,	44.429576E-9
1.551212E+3,	52.802247E-9
1.551216E+3,	63.663100E-9
1.551220E+3,	78.724747E-9
1.551224E+3,	93.342030E-9
1.551228E+3,	105.033902E-9
1.551232E+3,	116.846967E-9
1.551236E+3,	128.939786E-9
1.551240E+3,	138.688655E-9
1.551244E+3,	144.907168E-9
1.551248E+3,	149.644476E-9
1.551252E+3,	151.355512E-9
1.551256E+3,	149.521411E-9
1.551260E+3,	144.575939E-9
1.551264E+3,	138.465747E-9
1.551268E+3,	129.848603E-9
1.551272E+3,	116.722124E-9
1.551276E+3,	102.659090E-9
1.551280E+3,	90.337653E-9
1.551284E+3,	77.213385E-9
1.551288E+3,	62.479463E-9
1.551292E+3,	50.363390E-9
1.551296E+3,	41.740181E-9
1.551300E+3,	33.960573E-9
1.551304E+3,	28.300259E-9
1.551308E+3,	26.582448E-9
1.551312E+3,	27.753933E-9
1.551316E+3,	31.466783E-9
1.551320E+3,	37.717790E-9
1.551324E+3,	48.501116E-9
1.551328E+3,	60.409106E-9
1.551332E+3,	71.745326E-9
1.551336E+3,	85.135674E-9
1.551340E+3,	100.762696E-9
1.551344E+3,	114.318409E-9
1.551348E+3,	124.337009E-9
1.551352E+3,	133.840842E-9
1.551356E+3,	142.282929E-9
1.551360E+3,	147.325383E-9
1.551364E+3,	149.026393E-9
1.551368E+3,	148.596840E-9
1.551372E+3,	145.781193E-9
1.551376E+3,	139.011552E-9
1.551380E+3,	130.002873E-9
1.551384E+3,	120.983401E-9
1.551388E+3,	109.814250E-9
1.551392E+3,	95.946512E-9
1.551396E+3,	82.549962E-9
1.551400E+3,	71.327963E-9
1.551404E+3,	59.367808E-9
1.551408E+3,	46.554582E-9
1.551412E+3,	37.242514E-9
1.551416E+3,	31.868686E-9
1.551420E+3,	28.282754E-9
1.551424E+3,	27.468197E-9
1.551428E+3,	30.227167E-9
1.551432E+3,	35.973534E-9
1.551436E+3,	43.133560E-9
1.551440E+3,	52.744100E-9
1.551444E+3,	65.490871E-9
1.551448E+3,	78.153950E-9
1.551452E+3,	89.130266E-9
1.551456E+3,	100.913247E-9
1.551460E+3,	114.369599E-9
1.551464E+3,	125.536632E-9
1.551468E+3,	132.979292E-9
1.551472E+3,	139.009927E-9
1.551476E+3,	142.821470E-9
1.551480E+3,	144.452748E-9
1.551484E+3,	143.104384E-9
1.551488E+3,	139.457655E-9
1.551492E+3,	133.030419E-9
1.551496E+3,	122.085478E-9
1.551500E+3,	110.504619E-9
1.551504E+3,	100.643212E-9
1.551508E+3,	88.816791E-9
1.551512E+3,	73.955207E-9
1.551516E+3,	60.422245E-9
1.551520E+3,	50.327532E-9
1.551524E+3,	40.926166E-9
1.551528E+3,	32.875260E-9
1.551532E+3,	27.990206E-9
1.551536E+3,	26.145276E-9
1.551540E+3,	26.726369E-9
1.551544E+3,	30.183939E-9
1.551548E+3,	37.526109E-9
1.551552E+3,	46.469434E-9
1.551556E+3,	55.629524E-9
1.551560E+3,	67.103818E-9
1.551564E+3,	81.867964E-9
1.551568E+3,	95.717370E-9
1.551572E+3,	106.266879E-9
1.551576E+3,	116.838228E-9
1.551580E+3,	127.358342E-9
1.551584E+3,	134.718726E-9
1.551588E+3,	138.526094E-9
1.551592E+3,	140.441223E-9
1.551596E+3,	139.869083E-9
1.551600E+3,	135.695998E-9
1.551604E+3,	129.347942E-9
1.551608E+3,	122.433742E-9
1.551612E+3,	112.838577E-9
1.551616E+3,	99.471999E-9
1.551620E+3,	86.345111E-9
1.551624E+3,	75.515872E-9
1.551628E+3,	64.087756E-9
1.551632E+3,	51.670490E-9
1.551636E+3,	41.465814E-9
1.551640E+3,	34.620598E-9
1.551644E+3,	29.048747E-9
1.551648E+3,	25.781327E-9
1.551652E+3,	25.621426E-9
1.551656E+3,	28.732004E-9
1.551660E+3,	33.623064E-9
1.551664E+3,	41.006624E-9
1.551668E+3,	52.733463E-9
1.551672E+3,	65.586621E-9
1.551676E+3,	76.817058E-9
1.551680E+3,	89.195200E-9
1.551684E+3,	102.955289E-9
1.551688E+3,	113.652713E-9
1.551692E+3,	121.550046E-9
1.551696E+3,	128.960905E-9
1.551700E+3,	134.187529E-9
1.551704E+3,	137.415725E-9
1.551708E+3,	137.360021E-9
1.551712E+3,	134.938391E-9
1.551716E+3,	130.129361E-9
1.551720E+3,	121.810622E-9
1.551724E+3,	111.989230E-9
1.551728E+3,	102.237334E-9
1.551732E+3,	90.541632E-9
1.551736E+3,	76.894050E-9
1.551740E+3,	64.616972E-9
1.551744E+3,	54.764243E-9
1.551748E+3,	44.821338E-9
1.551752E+3,	34.906135E-9
1.551756E+3,	28.685499E-9
1.551760E+3,	25.898652E-9
1.551764E+3,	25.006874E-9
1.551768E+3,	26.570699E-9
1.551772E+3,	31.787250E-9
1.551776E+3,	39.268417E-9
1.551780E+3,	47.266252E-9
1.551784E+3,	57.581464E-9
1.551788E+3,	71.444104E-9
1.551792E+3,	84.556765E-9
1.551796E+3,	94.918869E-9
1.551800E+3,	105.819599E-9
1.551804E+3,	117.553687E-9
1.551808E+3,	126.348606E-9
1.551812E+3,	131.320588E-9
1.551816E+3,	134.270765E-9
1.551820E+3,	134.761509E-9
1.551824E+3,	132.131555E-9
1.551828E+3,	126.832360E-9
1.551832E+3,	120.087933E-9
1.551836E+3,	111.160182E-9
1.551840E+3,	98.818861E-9
1.551844E+3,	86.813796E-9
1.551848E+3,	76.995458E-9
1.551852E+3,	65.725549E-9
1.551856E+3,	52.460506E-9
1.551860E+3,	41.834560E-9
1.551864E+3,	34.982956E-9
1.551868E+3,	29.265178E-9
1.551872E+3,	25.534237E-9
1.551876E+3,	23.725920E-9
1.551880E+3,	24.892311E-9
1.551884E+3,	28.355835E-9
1.551888E+3,	34.559728E-9
1.551892E+3,	44.843506E-9
1.551896E+3,	55.721590E-9
1.551900E+3,	65.713359E-9
1.551904E+3,	77.379601E-9
1.551908E+3,	91.962552E-9
1.551912E+3,	104.703479E-9
1.551916E+3,	113.890269E-9
1.551920E+3,	122.021866E-9
1.551924E+3,	126.931499E-9
1.551928E+3,	131.468465E-9
1.551932E+3,	132.673870E-9
1.551936E+3,	131.584791E-9
1.551940E+3,	128.317620E-9
1.551944E+3,	121.188758E-9
1.551948E+3,	112.200592E-9
1.551952E+3,	103.383386E-9
1.551956E+3,	92.330075E-9
1.551960E+3,	78.189212E-9
1.551964E+3,	65.253670E-9
1.551968E+3,	55.487950E-9
1.551972E+3,	45.592949E-9
1.551976E+3,	35.630054E-9
1.551980E+3,	28.699633E-9
1.551984E+3,	25.245120E-9
1.551988E+3,	23.814684E-9
1.551992E+3,	24.895825E-9
1.551996E+3,	29.256282E-9
1.552000E+3,	35.811017E-9
1.552004E+3,	43.390602E-9
1.552008E+3,	53.526268E-9
1.552012E+3,	66.522119E-9
1.552016E+3,	78.633036E-9
1.552020E+3,	88.344499E-9
1.552024E+3,	98.678625E-9
1.552028E+3,	109.981766E-9
1.552032E+3,	118.720996E-9
1.552036E+3,	124.107746E-9
1.552040E+3,	127.982503E-9
1.552044E+3,	129.616049E-9
1.552048E+3,	128.699236E-9
1.552052E+3,	125.862533E-9
1.552056E+3,	120.589014E-9
1.552060E+3,	111.642353E-9
1.552064E+3,	101.469833E-9
1.552068E+3,	92.290982E-9
1.552072E+3,	81.668101E-9
1.552076E+3,	70.927884E-9
1.552080E+3,	57.903249E-9
1.552084E+3,	46.521065E-9
1.552088E+3,	38.528031E-9
1.552092E+3,	31.359745E-9
1.552096E+3,	26.042380E-9
1.552100E+3,	23.951659E-9
1.552104E+3,	24.583769E-9
1.552108E+3,	27.586324E-9
1.552112E+3,	34.018397E-9
1.552116E+3,	42.046494E-9
1.552120E+3,	50.080460E-9
1.552124E+3,	60.026434E-9
1.552128E+3,	72.864871E-9
1.552132E+3,	84.765748E-9
1.552136E+3,	94.313627E-9
1.552140E+3,	103.990078E-9
1.552144E+3,	113.735681E-9
1.552148E+3,	120.732058E-9
1.552152E+3,	124.779019E-9
1.552156E+3,	127.299408E-9
1.552160E+3,	127.548782E-9
1.552164E+3,	125.357582E-9
1.552168E+3,	121.468450E-9
1.552172E+3,	115.392094E-9
1.552176E+3,	107.692479E-9
1.552180E+3,	96.910448E-9
1.552184E+3,	85.934857E-9
1.552188E+3,	76.050958E-9
1.552192E+3,	64.637592E-9
1.552196E+3,	51.919810E-9
1.552200E+3,	41.651459E-9
1.552204E+3,	34.865639E-9
1.552208E+3,	29.146404E-9
1.552212E+3,	24.617956E-9
1.552216E+3,	23.072345E-9
1.552220E+3,	24.237726E-9
1.552224E+3,	27.869698E-9
1.552228E+3,	35.224794E-9
1.552232E+3,	43.807102E-9
1.552236E+3,	51.845246E-9
1.552240E+3,	62.106242E-9
1.552244E+3,	75.768839E-9
1.552248E+3,	88.474891E-9
1.552252E+3,	97.858624E-9
1.552256E+3,	106.937928E-9
1.552260E+3,	116.130834E-9
1.552264E+3,	122.667751E-9
1.552268E+3,	126.245838E-9
1.552272E+3,	128.214934E-9
1.552276E+3,	127.850190E-9
1.552280E+3,	124.396554E-9
1.552284E+3,	119.226414E-9
1.552288E+3,	112.951133E-9
1.552292E+3,	104.046668E-9
1.552296E+3,	92.045899E-9
1.552300E+3,	80.257086E-9
1.552304E+3,	69.992364E-9
1.552308E+3,	58.867943E-9
1.552312E+3,	46.673748E-9
1.552316E+3,	37.347133E-9
1.552320E+3,	31.392756E-9
1.552324E+3,	26.303240E-9
1.552328E+3,	23.284557E-9
1.552332E+3,	23.488473E-9
1.552336E+3,	26.037908E-9
1.552340E+3,	30.928655E-9
1.552344E+3,	39.384814E-9
1.552348E+3,	49.200118E-9
1.552352E+3,	58.487684E-9
1.552356E+3,	69.438034E-9
1.552360E+3,	82.192812E-9
1.552364E+3,	92.913794E-9
1.552368E+3,	101.095068E-9
1.552372E+3,	109.513812E-9
1.552376E+3,	116.603858E-9
1.552380E+3,	121.773517E-9
1.552384E+3,	123.779073E-9
1.552388E+3,	123.310816E-9
1.552392E+3,	120.554424E-9
1.552396E+3,	114.366493E-9
1.552400E+3,	106.593331E-9
1.552404E+3,	98.677959E-9
1.552408E+3,	88.935311E-9
1.552412E+3,	76.301947E-9
1.552416E+3,	64.760352E-9
1.552420E+3,	56.007053E-9
1.552424E+3,	46.686823E-9
1.552428E+3,	36.791187E-9
1.552432E+3,	29.351108E-9
1.552436E+3,	25.166586E-9
1.552440E+3,	22.486793E-9
1.552444E+3,	22.043014E-9
1.552448E+3,	24.040232E-9
1.552452E+3,	27.844360E-9
1.552456E+3,	34.233534E-9
1.552460E+3,	44.108456E-9
1.552464E+3,	54.435178E-9
1.552468E+3,	63.285970E-9
1.552472E+3,	73.400064E-9
1.552476E+3,	84.247484E-9
1.552480E+3,	95.868658E-9
1.552484E+3,	104.526679E-9
1.552488E+3,	110.149278E-9
1.552492E+3,	114.330281E-9
1.552496E+3,	116.379212E-9
1.552500E+3,	115.668414E-9
1.552504E+3,	113.022563E-9
1.552508E+3,	108.199986E-9
1.552512E+3,	100.252587E-9
1.552516E+3,	91.147493E-9
1.552520E+3,	82.993301E-9
1.552524E+3,	73.600985E-9
1.552528E+3,	62.391106E-9
1.552532E+3,	52.480365E-9
1.552536E+3,	44.716868E-9
1.552540E+3,	36.544150E-9
1.552544E+3,	28.594470E-9
1.552548E+3,	23.501759E-9
1.552552E+3,	21.126217E-9
1.552556E+3,	20.122815E-9
1.552560E+3,	21.763379E-9
1.552564E+3,	25.899843E-9
1.552568E+3,	31.200778E-9
1.552572E+3,	38.379205E-9
1.552576E+3,	46.873721E-9
1.552580E+3,	58.265197E-9
1.552584E+3,	69.299993E-9
1.552588E+3,	78.570348E-9
1.552592E+3,	87.739874E-9
1.552596E+3,	96.420777E-9
1.552600E+3,	102.727444E-9
1.552604E+3,	106.393613E-9
1.552608E+3,	108.694988E-9
1.552612E+3,	108.860140E-9
1.552616E+3,	106.734554E-9
1.552620E+3,	103.137221E-9
1.552624E+3,	97.367553E-9
1.552628E+3,	88.893636E-9
1.552632E+3,	79.966281E-9
1.552636E+3,	71.894208E-9
1.552640E+3,	62.466470E-9
1.552644E+3,	51.088623E-9
1.552648E+3,	41.430176E-9
1.552652E+3,	34.590105E-9
1.552656E+3,	28.355430E-9
1.552660E+3,	22.770951E-9
1.552664E+3,	19.512963E-9
1.552668E+3,	18.445804E-9
1.552672E+3,	19.184913E-9
1.552676E+3,	21.928565E-9
1.552680E+3,	27.231433E-9
1.552684E+3,	33.538723E-9
1.552688E+3,	39.890265E-9
1.552692E+3,	47.693865E-9
1.552696E+3,	58.384460E-9
1.552700E+3,	68.425544E-9
1.552704E+3,	76.051263E-9
1.552708E+3,	83.526463E-9
1.552712E+3,	90.688797E-9
1.552716E+3,	95.864499E-9
1.552720E+3,	98.586644E-9
1.552724E+3,	99.735849E-9
1.552728E+3,	98.421585E-9
1.552732E+3,	95.037275E-9
1.552736E+3,	90.793072E-9
1.552740E+3,	84.686668E-9
1.552744E+3,	75.367823E-9
1.552748E+3,	66.070493E-9
1.552752E+3,	58.132808E-9
1.552756E+3,	49.359534E-9
1.552760E+3,	39.520546E-9
1.552764E+3,	31.781430E-9
1.552768E+3,	26.370869E-9
1.552772E+3,	21.387729E-9
1.552776E+3,	17.942192E-9
1.552780E+3,	16.002956E-9
1.552784E+3,	16.122769E-9
1.552788E+3,	17.792403E-9
1.552792E+3,	20.854850E-9
1.552796E+3,	26.417274E-9
1.552800E+3,	33.503205E-9
1.552804E+3,	40.293038E-9
1.552808E+3,	48.253163E-9
1.552812E+3,	57.716621E-9
1.552816E+3,	65.921811E-9
1.552820E+3,	72.188441E-9
1.552824E+3,	78.726064E-9
1.552828E+3,	84.712088E-9
1.552832E+3,	88.090953E-9
1.552836E+3,	89.180549E-9
1.552840E+3,	88.771559E-9
1.552844E+3,	86.023676E-9
1.552848E+3,	81.723637E-9
1.552852E+3,	77.004439E-9
1.552856E+3,	70.583643E-9
1.552860E+3,	61.934014E-9
1.552864E+3,	53.659799E-9
1.552868E+3,	46.954040E-9
1.552872E+3,	39.450633E-9
1.552876E+3,	32.440723E-9
1.552880E+3,	25.366064E-9
1.552884E+3,	19.963225E-9
1.552888E+3,	16.640675E-9
1.552892E+3,	14.455776E-9
1.552896E+3,	13.784871E-9
1.552900E+3,	14.740920E-9
1.552904E+3,	16.803552E-9
1.552908E+3,	20.460404E-9
1.552912E+3,	26.407623E-9
1.552916E+3,	32.666783E-9
1.552920E+3,	38.220530E-9
1.552924E+3,	44.541674E-9
1.552928E+3,	52.271498E-9
1.552932E+3,	59.165496E-9
1.552936E+3,	64.179941E-9
1.552940E+3,	68.691133E-9
1.552944E+3,	72.535270E-9
1.552948E+3,	74.592014E-9
1.552952E+3,	74.964486E-9
1.552956E+3,	74.091835E-9
1.552960E+3,	71.277483E-9
1.552964E+3,	67.271730E-9
1.552968E+3,	63.006276E-9
1.552972E+3,	57.439267E-9
1.552976E+3,	51.291173E-9
1.552980E+3,	43.482388E-9
1.552984E+3,	36.251558E-9
1.552988E+3,	30.368577E-9
1.552992E+3,	24.502773E-9
1.552996E+3,	18.891005E-9
1.553000E+3,	14.999582E-9
1.553004E+3,	12.784735E-9
1.553008E+3,	11.371187E-9
1.553012E+3,	11.226378E-9
1.553016E+3,	12.519310E-9
1.553020E+3,	14.516915E-9
1.553024E+3,	17.518140E-9
1.553028E+3,	22.207877E-9
1.553032E+3,	27.184383E-9
1.553036E+3,	31.477421E-9
1.553040E+3,	36.707094E-9
1.553044E+3,	43.084990E-9
1.553048E+3,	48.355362E-9
1.553052E+3,	51.961475E-9
1.553056E+3,	55.360434E-9
1.553060E+3,	58.368576E-9
1.553064E+3,	59.852082E-9
1.553068E+3,	59.923137E-9
1.553072E+3,	58.285966E-9
1.553076E+3,	55.635936E-9
1.553080E+3,	52.466539E-9
1.553084E+3,	48.307678E-9
1.553088E+3,	42.627541E-9
1.553092E+3,	36.765595E-9
1.553096E+3,	31.784410E-9
1.553100E+3,	26.784666E-9
1.553104E+3,	21.389192E-9
1.553108E+3,	16.926027E-9
1.553112E+3,	13.844420E-9
1.553116E+3,	11.204063E-9
1.553120E+3,	9.274724E-9
1.553124E+3,	8.596560E-9
1.553128E+3,	8.997487E-9
1.553132E+3,	10.163777E-9
1.553136E+3,	12.588082E-9
1.553140E+3,	15.735401E-9
1.553144E+3,	18.852738E-9
1.553148E+3,	22.780319E-9
1.553152E+3,	27.575654E-9
1.553156E+3,	31.713802E-9
1.553160E+3,	34.970052E-9
1.553164E+3,	38.172198E-9
1.553168E+3,	41.358077E-9
1.553172E+3,	43.573097E-9
1.553176E+3,	44.454955E-9
1.553180E+3,	44.632402E-9
1.553184E+3,	43.768543E-9
1.553188E+3,	42.087503E-9
1.553192E+3,	39.853532E-9
1.553196E+3,	36.809975E-9
1.553200E+3,	32.595597E-9
1.553204E+3,	28.395499E-9
1.553208E+3,	24.861403E-9
1.553212E+3,	21.144057E-9
1.553216E+3,	17.039030E-9
1.553220E+3,	13.400945E-9
1.553224E+3,	10.822140E-9
1.553228E+3,	8.528568E-9
1.553232E+3,	6.789520E-9
1.553236E+3,	6.067231E-9
1.553240E+3,	6.164666E-9
1.553244E+3,	6.884603E-9
1.553248E+3,	8.539056E-9
1.553252E+3,	10.725897E-9
1.553256E+3,	12.834429E-9
1.553260E+3,	15.354097E-9
1.553264E+3,	18.614251E-9
1.553268E+3,	21.507235E-9
1.553272E+3,	23.724481E-9
1.553276E+3,	25.942253E-9
1.553280E+3,	28.103826E-9
1.553284E+3,	29.593014E-9
1.553288E+3,	30.283928E-9
1.553292E+3,	30.514640E-9
1.553296E+3,	30.057253E-9
1.553300E+3,	29.007345E-9
1.553304E+3,	27.575369E-9
1.553308E+3,	25.521567E-9
1.553312E+3,	22.580654E-9
1.553316E+3,	19.683232E-9
1.553320E+3,	17.217007E-9
1.553324E+3,	14.560175E-9
1.553328E+3,	11.441248E-9
1.553332E+3,	8.789165E-9
1.553336E+3,	7.058369E-9
1.553340E+3,	5.559514E-9
1.553344E+3,	4.453817E-9
1.553348E+3,	3.920636E-9
1.553352E+3,	3.925224E-9
1.553356E+3,	4.322814E-9
1.553360E+3,	5.272559E-9
1.553364E+3,	6.562806E-9
1.553368E+3,	7.843062E-9
1.553372E+3,	9.333891E-9
1.553376E+3,	11.231856E-9
1.553380E+3,	13.056886E-9
1.553384E+3,	14.531984E-9
1.553388E+3,	15.994314E-9
1.553392E+3,	17.412528E-9
1.553396E+3,	18.313077E-9
1.553400E+3,	18.762092E-9
1.553404E+3,	18.949226E-9
1.553408E+3,	18.670196E-9
1.553412E+3,	17.977392E-9
1.553416E+3,	17.053413E-9
1.553420E+3,	15.905272E-9
1.553424E+3,	14.224023E-9
1.553428E+3,	12.479057E-9
1.553432E+3,	10.925379E-9
1.553436E+3,	9.155876E-9
1.553440E+3,	7.207784E-9
1.553444E+3,	5.624685E-9
1.553448E+3,	4.559773E-9
1.553452E+3,	3.582044E-9
1.553456E+3,	2.762291E-9
1.553460E+3,	2.340312E-9
1.553464E+3,	2.265431E-9
1.553468E+3,	2.461172E-9
1.553472E+3,	2.975881E-9
1.553476E+3,	3.650589E-9
1.553480E+3,	4.338814E-9
1.553484E+3,	5.258721E-9
1.553488E+3,	6.414410E-9
1.553492E+3,	7.470750E-9
1.553496E+3,	8.292896E-9
1.553500E+3,	9.069307E-9
1.553504E+3,	9.790357E-9
1.553508E+3,	10.288482E-9
1.553512E+3,	10.548461E-9
1.553516E+3,	10.690120E-9
1.553520E+3,	10.540608E-9
1.553524E+3,	10.203246E-9
1.553528E+3,	9.771290E-9
1.553532E+3,	9.173400E-9
1.553536E+3,	8.305854E-9
1.553540E+3,	7.362059E-9
1.553544E+3,	6.540306E-9
1.553548E+3,	5.537482E-9
1.553552E+3,	4.430227E-9
1.553556E+3,	3.527284E-9
1.553560E+3,	2.894339E-9
1.553564E+3,	2.264749E-9
1.553568E+3,	1.675170E-9
1.553572E+3,	1.347271E-9
1.553576E+3,	1.244631E-9
1.553580E+3,	1.305348E-9
1.553584E+3,	1.488115E-9
1.553588E+3,	1.755182E-9
1.553592E+3,	2.156695E-9
1.553596E+3,	2.692002E-9
1.553600E+3,	3.218443E-9
1.553604E+3,	3.661082E-9
1.553608E+3,	4.097614E-9
1.553612E+3,	4.569202E-9
1.553616E+3,	4.934132E-9
1.553620E+3,	5.143928E-9
1.553624E+3,	5.318363E-9
1.553628E+3,	5.386384E-9
1.553632E+3,	5.325924E-9
1.553636E+3,	5.217022E-9
1.553640E+3,	5.010380E-9
1.553644E+3,	4.611086E-9
1.553648E+3,	4.202238E-9
1.553652E+3,	3.852638E-9
1.553656E+3,	3.395863E-9
1.553660E+3,	2.856844E-9
1.553664E+3,	2.409398E-9
1.553668E+3,	2.024538E-9
1.553672E+3,	1.610382E-9
1.553676E+3,	1.219983E-9
1.553680E+3,	915.127150E-12
1.553684E+3,	753.743461E-12
1.553688E+3,	661.173116E-12
1.553692E+3,	585.403105E-12
1.553696E+3,	642.867478E-12
1.553700E+3,	727.681047E-12
1.553704E+3,	881.711454E-12
1.553708E+3,	1.093142E-9
1.553712E+3,	1.327101E-9
1.553716E+3,	1.546064E-9
1.553720E+3,	1.788879E-9
1.553724E+3,	2.034275E-9
1.553728E+3,	2.230424E-9
1.553732E+3,	2.371775E-9
1.553736E+3,	2.457644E-9
1.553740E+3,	2.542409E-9
1.553744E+3,	2.560968E-9
1.553748E+3,	2.523772E-9
1.553752E+3,	2.434422E-9
1.553756E+3,	2.265186E-9
1.553760E+3,	2.073468E-9
1.553764E+3,	1.955246E-9
1.553768E+3,	1.737473E-9
1.553772E+3,	1.476011E-9
1.553776E+3,	1.276547E-9
1.553780E+3,	1.067485E-9
1.553784E+3,	874.803515E-12
1.553788E+3,	655.255459E-12
1.553792E+3,	532.421203E-12
1.553796E+3,	410.580236E-12
1.553800E+3,	306.570053E-12
1.553804E+3,	291.671309E-12
1.553808E+3,	259.174868E-12
1.553812E+3,	263.042329E-12
1.553816E+3,	326.092695E-12
1.553820E+3,	426.420253E-12
1.553824E+3,	521.541425E-12
1.553828E+3,	592.963933E-12
1.553832E+3,	704.431896E-12
1.553836E+3,	824.043252E-12
1.553840E+3,	914.940324E-12
1.553844E+3,	986.917494E-12
1.553848E+3,	1.061859E-9
1.553852E+3,	1.092244E-9
1.553856E+3,	1.120247E-9
1.553860E+3,	1.120094E-9
1.553864E+3,	1.088254E-9
1.553868E+3,	1.032832E-9
1.553872E+3,	961.570048E-12
1.553876E+3,	894.863359E-12
1.553880E+3,	827.277892E-12
1.553884E+3,	695.274076E-12
1.553888E+3,	554.149644E-12
1.553892E+3,	483.200161E-12
1.553896E+3,	404.787742E-12
1.553900E+3,	334.491340E-12
1.553904E+3,	259.234552E-12
1.553908E+3,	203.576641E-12
1.553912E+3,	148.422685E-12
1.553916E+3,	120.134108E-12
1.553920E+3,	104.677435E-12
1.553924E+3,	123.152265E-12
1.553928E+3,	130.118305E-12
1.553932E+3,	167.459404E-12
1.553936E+3,	215.754533E-12
1.553940E+3,	238.666261E-12
1.553944E+3,	284.241904E-12
1.553948E+3,	350.298243E-12
1.553952E+3,	402.268629E-12
1.553956E+3,	406.871207E-12
1.553960E+3,	439.578299E-12
1.553964E+3,	472.997265E-12
1.553968E+3,	476.891851E-12
1.553972E+3,	468.505090E-12
1.553976E+3,	461.185430E-12
1.553980E+3,	442.231532E-12
1.553984E+3,	409.618652E-12
1.553988E+3,	384.837835E-12
1.553992E+3,	325.279259E-12
1.553996E+3,	313.125169E-12
1.554000E+3,	271.397116E-12
1.554004E+3,	226.699044E-12
1.554008E+3,	184.820085E-12
1.554012E+3,	154.456006E-12
1.554016E+3,	128.769555E-12
1.554020E+3,	91.272787E-12
1.554024E+3,	63.761437E-12
1.554028E+3,	56.304218E-12
1.554032E+3,	55.536860E-12
1.554036E+3,	54.591551E-12
1.554040E+3,	58.418533E-12
1.554044E+3,	41.942715E-12
1.554048E+3,	59.183393E-12
1.554052E+3,	105.439449E-12
1.554056E+3,	109.771147E-12
1.554060E+3,	155.601479E-12
1.554064E+3,	169.752980E-12
1.554068E+3,	171.644017E-12
1.554072E+3,	187.414589E-12
1.554076E+3,	201.079832E-12
1.554080E+3,	231.489489E-12
1.554084E+3,	234.509815E-12
1.554088E+3,	211.765307E-12
1.554092E+3,	185.994422E-12
1.554096E+3,	183.718436E-12
1.554100E+3,	169.662264E-12
1.554104E+3,	155.139225E-12
1.554108E+3,	117.198989E-12
1.554112E+3,	95.298755E-12
1.554116E+3,	95.746783E-12
1.554120E+3,	69.589939E-12
1.554124E+3,	51.157086E-12
1.554128E+3,	43.556101E-12
1.554132E+3,	28.810405E-12
1.554136E+3,	29.929834E-12
1.554140E+3,	35.177266E-12
1.554144E+3,	19.221070E-12
1.554148E+3,	17.254979E-12
1.554152E+3,	19.442555E-12
1.554156E+3,	26.485069E-12
1.554160E+3,	34.189336E-12
1.554164E+3,	32.471849E-12
1.554168E+3,	63.317789E-12
1.554172E+3,	73.289855E-12
1.554176E+3,	70.281453E-12
1.554180E+3,	80.997053E-12
1.554184E+3,	89.975227E-12
1.554188E+3,	82.488868E-12
1.554192E+3,	74.956652E-12
1.554196E+3,	62.898724E-12
1.554200E+3,	72.673852E-12
1.554204E+3,	78.573871E-12
1.554208E+3,	75.233702E-12
1.554212E+3,	85.574070E-12
1.554216E+3,	58.328644E-12
1.554220E+3,	55.620869E-12
1.554224E+3,	67.087359E-12
1.554228E+3,	58.531083E-12
1.554232E+3,	45.992229E-12
1.554236E+3,	40.180311E-12
1.554240E+3,	25.192387E-12
1.554244E+3,	14.464211E-12
1.554248E+3,	28.847898E-12
1.554252E+3,	4.608397E-12
1.554256E+3,	27.438250E-12
1.554260E+3,	5.306066E-12
1.554264E+3,	21.157845E-12
1.554268E+3,	23.985933E-12
1.554272E+3,	0.000000E+0
1.554276E+3,	14.280786E-12
1.554280E+3,	24.633416E-12
1.554284E+3,	13.149418E-12
1.554288E+3,	24.882582E-12
1.554292E+3,	26.759848E-12
1.554296E+3,	24.867922E-12
1.554300E+3,	24.585537E-12
1.554304E+3,	34.647835E-12
1.554308E+3,	20.351598E-12
1.554312E+3,	47.849597E-12
1.554316E+3,	15.269359E-12
1.554320E+3,	20.701281E-12
1.554324E+3,	10.871786E-12
1.554328E+3,	21.066729E-12
1.554332E+3,	37.236965E-12
1.554336E+3,	34.228720E-12
1.554340E+3,	12.924547E-12
1.554344E+3,	23.272775E-12
1.554348E+3,	42.083579E-12
1.554352E+3,	12.124576E-12
1.554356E+3,	7.752489E-12
1.554360E+3,	14.752813E-12
1.554364E+3,	0.000000E+0
1.554368E+3,	0.000000E+0
1.554372E+3,	0.000000E+0
1.554376E+3,	0.000000E+0
1.554380E+3,	16.647326E-12
1.554384E+3,	10.711397E-12
1.554388E+3,	0.000000E+0
1.554392E+3,	0.000000E+0
1.554396E+3,	0.000000E+0
1.554400E+3,	4.353644E-12
1.554404E+3,	21.365077E-12
1.554408E+3,	18.731894E-12
1.554412E+3,	11.319287E-12
1.554416E+3,	0.000000E+0
1.554420E+3,	0.000000E+0
1.554424E+3,	31.286875E-12
1.554428E+3,	4.612642E-12
1.554432E+3,	8.230484E-12
1.554436E+3,	0.000000E+0
1.554440E+3,	0.000000E+0
1.554444E+3,	15.577227E-12
1.554448E+3,	0.000000E+0
1.554452E+3,	3.108544E-12
1.554456E+3,	2.012191E-12
1.554460E+3,	878.675085E-15
1.554464E+3,	5.863086E-12
1.554468E+3,	16.511228E-12
1.554472E+3,	1.473646E-12
1.554476E+3,	0.000000E+0
1.554480E+3,	0.000000E+0
1.554484E+3,	0.000000E+0
1.554488E+3,	0.000000E+0
1.554492E+3,	0.000000E+0
1.554496E+3,	1.692311E-12
1.554500E+3,	1.630164E-12
