YOKOGAWA AQ6370D - S/N: 91S206859
#Date: 20/10/2023 Time: 12:46:56,	
A_WL(nm),	A_I(mW)
1.547500E+3,	15.633973E-12
1.547504E+3,	2.742812E-12
1.547508E+3,	7.909865E-12
1.547512E+3,	6.096864E-12
1.547516E+3,	13.258218E-12
1.547520E+3,	7.223786E-12
1.547524E+3,	12.152289E-12
1.547528E+3,	11.898465E-12
1.547532E+3,	14.206778E-12
1.547536E+3,	5.195306E-12
1.547540E+3,	13.498678E-12
1.547544E+3,	0.000000E+0
1.547548E+3,	784.771000E-15
1.547552E+3,	5.589223E-12
1.547556E+3,	0.000000E+0
1.547560E+3,	10.973837E-12
1.547564E+3,	15.107477E-12
1.547568E+3,	7.547265E-12
1.547572E+3,	0.000000E+0
1.547576E+3,	0.000000E+0
1.547580E+3,	0.000000E+0
1.547584E+3,	0.000000E+0
1.547588E+3,	0.000000E+0
1.547592E+3,	0.000000E+0
1.547596E+3,	7.256117E-12
1.547600E+3,	28.574152E-12
1.547604E+3,	10.341667E-12
1.547608E+3,	4.176043E-12
1.547612E+3,	0.000000E+0
1.547616E+3,	8.614652E-12
1.547620E+3,	8.370767E-12
1.547624E+3,	5.436008E-12
1.547628E+3,	12.771649E-12
1.547632E+3,	0.000000E+0
1.547636E+3,	0.000000E+0
1.547640E+3,	3.882271E-12
1.547644E+3,	0.000000E+0
1.547648E+3,	0.000000E+0
1.547652E+3,	0.000000E+0
1.547656E+3,	0.000000E+0
1.547660E+3,	1.498866E-12
1.547664E+3,	0.000000E+0
1.547668E+3,	0.000000E+0
1.547672E+3,	0.000000E+0
1.547676E+3,	0.000000E+0
1.547680E+3,	8.050079E-12
1.547684E+3,	7.276989E-12
1.547688E+3,	0.000000E+0
1.547692E+3,	7.784746E-12
1.547696E+3,	3.673621E-12
1.547700E+3,	0.000000E+0
1.547704E+3,	12.991433E-12
1.547708E+3,	14.712006E-12
1.547712E+3,	0.000000E+0
1.547716E+3,	303.641229E-15
1.547720E+3,	0.000000E+0
1.547724E+3,	0.000000E+0
1.547728E+3,	17.871468E-12
1.547732E+3,	11.178412E-12
1.547736E+3,	7.387494E-12
1.547740E+3,	6.997999E-12
1.547744E+3,	0.000000E+0
1.547748E+3,	948.377719E-15
1.547752E+3,	3.977485E-12
1.547756E+3,	0.000000E+0
1.547760E+3,	468.187923E-15
1.547764E+3,	8.874840E-12
1.547768E+3,	0.000000E+0
1.547772E+3,	0.000000E+0
1.547776E+3,	0.000000E+0
1.547780E+3,	0.000000E+0
1.547784E+3,	14.153103E-12
1.547788E+3,	12.872536E-12
1.547792E+3,	9.364577E-12
1.547796E+3,	0.000000E+0
1.547800E+3,	12.154258E-12
1.547804E+3,	17.798916E-12
1.547808E+3,	0.000000E+0
1.547812E+3,	3.161257E-12
1.547816E+3,	2.419719E-12
1.547820E+3,	16.597964E-12
1.547824E+3,	7.733906E-12
1.547828E+3,	0.000000E+0
1.547832E+3,	23.318345E-12
1.547836E+3,	8.029521E-12
1.547840E+3,	4.203749E-12
1.547844E+3,	0.000000E+0
1.547848E+3,	13.739086E-12
1.547852E+3,	0.000000E+0
1.547856E+3,	76.685905E-15
1.547860E+3,	15.272605E-12
1.547864E+3,	3.016845E-12
1.547868E+3,	4.428334E-12
1.547872E+3,	0.000000E+0
1.547876E+3,	989.829373E-15
1.547880E+3,	29.094928E-12
1.547884E+3,	0.000000E+0
1.547888E+3,	0.000000E+0
1.547892E+3,	0.000000E+0
1.547896E+3,	0.000000E+0
1.547900E+3,	15.455940E-12
1.547904E+3,	20.451824E-12
1.547908E+3,	1.220734E-12
1.547912E+3,	2.127861E-12
1.547916E+3,	0.000000E+0
1.547920E+3,	0.000000E+0
1.547924E+3,	12.287681E-12
1.547928E+3,	0.000000E+0
1.547932E+3,	3.778833E-12
1.547936E+3,	1.127080E-12
1.547940E+3,	0.000000E+0
1.547944E+3,	3.271594E-12
1.547948E+3,	5.630667E-12
1.547952E+3,	6.903114E-12
1.547956E+3,	4.408238E-12
1.547960E+3,	19.781471E-12
1.547964E+3,	2.073911E-12
1.547968E+3,	7.027964E-12
1.547972E+3,	0.000000E+0
1.547976E+3,	0.000000E+0
1.547980E+3,	11.104288E-12
1.547984E+3,	18.623715E-12
1.547988E+3,	1.239161E-12
1.547992E+3,	9.967732E-12
1.547996E+3,	19.982585E-12
1.548000E+3,	11.883642E-12
1.548004E+3,	0.000000E+0
1.548008E+3,	3.199007E-12
1.548012E+3,	0.000000E+0
1.548016E+3,	0.000000E+0
1.548020E+3,	7.186254E-12
1.548024E+3,	0.000000E+0
1.548028E+3,	0.000000E+0
1.548032E+3,	0.000000E+0
1.548036E+3,	11.603607E-12
1.548040E+3,	0.000000E+0
1.548044E+3,	0.000000E+0
1.548048E+3,	8.173088E-12
1.548052E+3,	0.000000E+0
1.548056E+3,	0.000000E+0
1.548060E+3,	3.515569E-12
1.548064E+3,	22.566752E-12
1.548068E+3,	5.052298E-12
1.548072E+3,	9.111560E-12
1.548076E+3,	11.086471E-12
1.548080E+3,	2.292727E-12
1.548084E+3,	6.777031E-12
1.548088E+3,	0.000000E+0
1.548092E+3,	0.000000E+0
1.548096E+3,	4.458914E-12
1.548100E+3,	0.000000E+0
1.548104E+3,	9.572911E-12
1.548108E+3,	4.108234E-12
1.548112E+3,	3.203683E-12
1.548116E+3,	0.000000E+0
1.548120E+3,	0.000000E+0
1.548124E+3,	27.809915E-12
1.548128E+3,	10.973380E-12
1.548132E+3,	23.257289E-12
1.548136E+3,	0.000000E+0
1.548140E+3,	0.000000E+0
1.548144E+3,	0.000000E+0
1.548148E+3,	0.000000E+0
1.548152E+3,	0.000000E+0
1.548156E+3,	0.000000E+0
1.548160E+3,	0.000000E+0
1.548164E+3,	0.000000E+0
1.548168E+3,	0.000000E+0
1.548172E+3,	0.000000E+0
1.548176E+3,	0.000000E+0
1.548180E+3,	0.000000E+0
1.548184E+3,	27.431980E-12
1.548188E+3,	487.055367E-15
1.548192E+3,	0.000000E+0
1.548196E+3,	12.410816E-12
1.548200E+3,	2.638888E-12
1.548204E+3,	5.078601E-12
1.548208E+3,	9.577322E-12
1.548212E+3,	16.072565E-12
1.548216E+3,	7.270565E-12
1.548220E+3,	0.000000E+0
1.548224E+3,	3.674204E-12
1.548228E+3,	14.560758E-12
1.548232E+3,	2.341547E-12
1.548236E+3,	186.867211E-15
1.548240E+3,	13.031374E-12
1.548244E+3,	0.000000E+0
1.548248E+3,	5.360364E-12
1.548252E+3,	10.130292E-12
1.548256E+3,	24.803992E-12
1.548260E+3,	21.842669E-12
1.548264E+3,	5.757915E-12
1.548268E+3,	5.563527E-12
1.548272E+3,	12.341006E-12
1.548276E+3,	16.792072E-12
1.548280E+3,	17.958934E-12
1.548284E+3,	0.000000E+0
1.548288E+3,	31.066541E-12
1.548292E+3,	0.000000E+0
1.548296E+3,	8.168693E-12
1.548300E+3,	18.867524E-12
1.548304E+3,	20.868074E-12
1.548308E+3,	31.911247E-12
1.548312E+3,	37.820714E-12
1.548316E+3,	22.247479E-12
1.548320E+3,	23.574018E-12
1.548324E+3,	23.037415E-12
1.548328E+3,	22.688385E-12
1.548332E+3,	16.545343E-12
1.548336E+3,	25.887802E-12
1.548340E+3,	31.013430E-12
1.548344E+3,	36.347542E-12
1.548348E+3,	24.185955E-12
1.548352E+3,	22.252603E-12
1.548356E+3,	49.552934E-12
1.548360E+3,	39.747529E-12
1.548364E+3,	42.071126E-12
1.548368E+3,	31.958581E-12
1.548372E+3,	43.736622E-12
1.548376E+3,	50.239984E-12
1.548380E+3,	55.347773E-12
1.548384E+3,	90.676998E-12
1.548388E+3,	70.616987E-12
1.548392E+3,	80.179754E-12
1.548396E+3,	90.869696E-12
1.548400E+3,	89.790469E-12
1.548404E+3,	77.805425E-12
1.548408E+3,	104.013963E-12
1.548412E+3,	120.194326E-12
1.548416E+3,	115.849271E-12
1.548420E+3,	137.583138E-12
1.548424E+3,	132.032491E-12
1.548428E+3,	145.428388E-12
1.548432E+3,	153.773092E-12
1.548436E+3,	143.570721E-12
1.548440E+3,	152.851148E-12
1.548444E+3,	158.661823E-12
1.548448E+3,	125.604579E-12
1.548452E+3,	156.281582E-12
1.548456E+3,	175.175146E-12
1.548460E+3,	160.501429E-12
1.548464E+3,	167.436225E-12
1.548468E+3,	201.667548E-12
1.548472E+3,	183.867257E-12
1.548476E+3,	214.866641E-12
1.548480E+3,	238.274931E-12
1.548484E+3,	286.227044E-12
1.548488E+3,	276.980421E-12
1.548492E+3,	335.656650E-12
1.548496E+3,	367.939177E-12
1.548500E+3,	415.719777E-12
1.548504E+3,	431.237490E-12
1.548508E+3,	463.813104E-12
1.548512E+3,	505.519441E-12
1.548516E+3,	536.360911E-12
1.548520E+3,	554.075277E-12
1.548524E+3,	595.152690E-12
1.548528E+3,	605.592812E-12
1.548532E+3,	601.573167E-12
1.548536E+3,	607.604307E-12
1.548540E+3,	605.240648E-12
1.548544E+3,	602.275763E-12
1.548548E+3,	569.434165E-12
1.548552E+3,	543.767969E-12
1.548556E+3,	523.739359E-12
1.548560E+3,	533.434450E-12
1.548564E+3,	506.600158E-12
1.548568E+3,	520.008194E-12
1.548572E+3,	530.487222E-12
1.548576E+3,	556.881208E-12
1.548580E+3,	591.069069E-12
1.548584E+3,	651.996406E-12
1.548588E+3,	731.826149E-12
1.548592E+3,	820.227011E-12
1.548596E+3,	938.235792E-12
1.548600E+3,	1.072678E-9
1.548604E+3,	1.184389E-9
1.548608E+3,	1.312131E-9
1.548612E+3,	1.458614E-9
1.548616E+3,	1.609024E-9
1.548620E+3,	1.726074E-9
1.548624E+3,	1.836439E-9
1.548628E+3,	1.938815E-9
1.548632E+3,	2.000463E-9
1.548636E+3,	2.033545E-9
1.548640E+3,	2.038415E-9
1.548644E+3,	2.038880E-9
1.548648E+3,	1.999198E-9
1.548652E+3,	1.927571E-9
1.548656E+3,	1.834965E-9
1.548660E+3,	1.752900E-9
1.548664E+3,	1.658145E-9
1.548668E+3,	1.562375E-9
1.548672E+3,	1.456483E-9
1.548676E+3,	1.384473E-9
1.548680E+3,	1.353367E-9
1.548684E+3,	1.323863E-9
1.548688E+3,	1.364364E-9
1.548692E+3,	1.444550E-9
1.548696E+3,	1.584467E-9
1.548700E+3,	1.778445E-9
1.548704E+3,	2.013676E-9
1.548708E+3,	2.358508E-9
1.548712E+3,	2.737153E-9
1.548716E+3,	3.044151E-9
1.548720E+3,	3.419521E-9
1.548724E+3,	3.828254E-9
1.548728E+3,	4.289197E-9
1.548732E+3,	4.660669E-9
1.548736E+3,	4.938814E-9
1.548740E+3,	5.215207E-9
1.548744E+3,	5.400719E-9
1.548748E+3,	5.550598E-9
1.548752E+3,	5.584422E-9
1.548756E+3,	5.519196E-9
1.548760E+3,	5.412397E-9
1.548764E+3,	5.162418E-9
1.548768E+3,	4.877979E-9
1.548772E+3,	4.560866E-9
1.548776E+3,	4.238393E-9
1.548780E+3,	3.871782E-9
1.548784E+3,	3.467843E-9
1.548788E+3,	3.185783E-9
1.548792E+3,	2.993720E-9
1.548796E+3,	2.828869E-9
1.548800E+3,	2.763515E-9
1.548804E+3,	2.865430E-9
1.548808E+3,	3.138455E-9
1.548812E+3,	3.494324E-9
1.548816E+3,	4.034830E-9
1.548820E+3,	4.664113E-9
1.548824E+3,	5.545785E-9
1.548828E+3,	6.553529E-9
1.548832E+3,	7.479858E-9
1.548836E+3,	8.547400E-9
1.548840E+3,	9.595545E-9
1.548844E+3,	10.646023E-9
1.548848E+3,	11.556564E-9
1.548852E+3,	12.219337E-9
1.548856E+3,	12.820935E-9
1.548860E+3,	13.228834E-9
1.548864E+3,	13.337758E-9
1.548868E+3,	13.186713E-9
1.548872E+3,	12.831119E-9
1.548876E+3,	12.317685E-9
1.548880E+3,	11.443861E-9
1.548884E+3,	10.529988E-9
1.548888E+3,	9.655668E-9
1.548892E+3,	8.634111E-9
1.548896E+3,	7.612532E-9
1.548900E+3,	6.616577E-9
1.548904E+3,	5.843862E-9
1.548908E+3,	5.347630E-9
1.548912E+3,	5.080997E-9
1.548916E+3,	5.115345E-9
1.548920E+3,	5.605438E-9
1.548924E+3,	6.414881E-9
1.548928E+3,	7.422297E-9
1.548932E+3,	8.880301E-9
1.548936E+3,	10.721659E-9
1.548940E+3,	13.285918E-9
1.548944E+3,	15.777587E-9
1.548948E+3,	17.774956E-9
1.548952E+3,	19.890501E-9
1.548956E+3,	22.320290E-9
1.548960E+3,	24.319663E-9
1.548964E+3,	25.680034E-9
1.548968E+3,	26.779049E-9
1.548972E+3,	27.396576E-9
1.548976E+3,	27.496237E-9
1.548980E+3,	27.048393E-9
1.548984E+3,	26.261256E-9
1.548988E+3,	24.913422E-9
1.548992E+3,	23.266895E-9
1.548996E+3,	20.940933E-9
1.549000E+3,	18.568353E-9
1.549004E+3,	16.634603E-9
1.549008E+3,	14.648703E-9
1.549012E+3,	12.876141E-9
1.549016E+3,	10.975425E-9
1.549020E+3,	9.624803E-9
1.549024E+3,	9.113203E-9
1.549028E+3,	9.181329E-9
1.549032E+3,	10.088265E-9
1.549036E+3,	11.664069E-9
1.549040E+3,	13.563152E-9
1.549044E+3,	16.250780E-9
1.549048E+3,	19.591915E-9
1.549052E+3,	24.213292E-9
1.549056E+3,	28.602631E-9
1.549060E+3,	32.158715E-9
1.549064E+3,	36.235446E-9
1.549068E+3,	39.986445E-9
1.549072E+3,	43.838415E-9
1.549076E+3,	46.775031E-9
1.549080E+3,	48.440698E-9
1.549084E+3,	49.460797E-9
1.549088E+3,	49.580660E-9
1.549092E+3,	48.606349E-9
1.549096E+3,	46.948851E-9
1.549100E+3,	44.370549E-9
1.549104E+3,	41.159534E-9
1.549108E+3,	36.743144E-9
1.549112E+3,	32.309388E-9
1.549116E+3,	28.832368E-9
1.549120E+3,	25.044867E-9
1.549124E+3,	20.679716E-9
1.549128E+3,	17.366653E-9
1.549132E+3,	15.523349E-9
1.549136E+3,	14.275390E-9
1.549140E+3,	13.964691E-9
1.549144E+3,	14.785770E-9
1.549148E+3,	16.841764E-9
1.549152E+3,	19.599114E-9
1.549156E+3,	23.768079E-9
1.549160E+3,	28.688897E-9
1.549164E+3,	35.046607E-9
1.549168E+3,	41.381323E-9
1.549172E+3,	47.073979E-9
1.549176E+3,	53.342152E-9
1.549180E+3,	60.236222E-9
1.549184E+3,	65.598770E-9
1.549188E+3,	68.971077E-9
1.549192E+3,	71.632018E-9
1.549196E+3,	73.079670E-9
1.549200E+3,	73.097019E-9
1.549204E+3,	71.505266E-9
1.549208E+3,	68.911292E-9
1.549212E+3,	64.947319E-9
1.549216E+3,	60.192210E-9
1.549220E+3,	54.012337E-9
1.549224E+3,	47.677611E-9
1.549228E+3,	42.213216E-9
1.549232E+3,	36.017825E-9
1.549236E+3,	29.367343E-9
1.549240E+3,	24.332509E-9
1.549244E+3,	21.218524E-9
1.549248E+3,	18.765344E-9
1.549252E+3,	17.681433E-9
1.549256E+3,	18.329766E-9
1.549260E+3,	20.692331E-9
1.549264E+3,	24.122828E-9
1.549268E+3,	29.046126E-9
1.549272E+3,	36.235237E-9
1.549276E+3,	43.746077E-9
1.549280E+3,	50.515790E-9
1.549284E+3,	58.534122E-9
1.549288E+3,	66.752282E-9
1.549292E+3,	76.037487E-9
1.549296E+3,	83.303607E-9
1.549300E+3,	87.884789E-9
1.549304E+3,	91.956066E-9
1.549308E+3,	94.681268E-9
1.549312E+3,	95.473408E-9
1.549316E+3,	94.000674E-9
1.549320E+3,	91.274796E-9
1.549324E+3,	86.762267E-9
1.549328E+3,	79.608787E-9
1.549332E+3,	71.690471E-9
1.549336E+3,	64.244437E-9
1.549340E+3,	55.271050E-9
1.549344E+3,	46.834832E-9
1.549348E+3,	38.111367E-9
1.549352E+3,	31.017581E-9
1.549356E+3,	26.243864E-9
1.549360E+3,	22.384941E-9
1.549364E+3,	20.362974E-9
1.549368E+3,	20.252194E-9
1.549372E+3,	22.542558E-9
1.549376E+3,	26.021184E-9
1.549380E+3,	31.191729E-9
1.549384E+3,	39.597229E-9
1.549388E+3,	49.044888E-9
1.549392E+3,	57.913653E-9
1.549396E+3,	68.203848E-9
1.549400E+3,	78.485268E-9
1.549404E+3,	90.296522E-9
1.549408E+3,	100.269113E-9
1.549412E+3,	107.387967E-9
1.549416E+3,	113.966077E-9
1.549420E+3,	118.602568E-9
1.549424E+3,	120.701404E-9
1.549428E+3,	119.807787E-9
1.549432E+3,	116.811145E-9
1.549436E+3,	111.523411E-9
1.549440E+3,	102.577602E-9
1.549444E+3,	92.040445E-9
1.549448E+3,	82.193940E-9
1.549452E+3,	71.240869E-9
1.549456E+3,	60.725435E-9
1.549460E+3,	49.210366E-9
1.549464E+3,	39.974138E-9
1.549468E+3,	33.398536E-9
1.549472E+3,	27.567110E-9
1.549476E+3,	23.732272E-9
1.549480E+3,	23.124151E-9
1.549484E+3,	24.854019E-9
1.549488E+3,	28.721024E-9
1.549492E+3,	34.948938E-9
1.549496E+3,	45.926766E-9
1.549500E+3,	58.261689E-9
1.549504E+3,	69.115000E-9
1.549508E+3,	81.757312E-9
1.549512E+3,	94.436080E-9
1.549516E+3,	108.982845E-9
1.549520E+3,	121.880686E-9
1.549524E+3,	131.275731E-9
1.549528E+3,	139.502279E-9
1.549532E+3,	145.678497E-9
1.549536E+3,	148.184003E-9
1.549540E+3,	147.665273E-9
1.549544E+3,	144.227513E-9
1.549548E+3,	137.903189E-9
1.549552E+3,	126.721567E-9
1.549556E+3,	114.254702E-9
1.549560E+3,	103.078027E-9
1.549564E+3,	89.930658E-9
1.549568E+3,	76.632013E-9
1.549572E+3,	61.129908E-9
1.549576E+3,	48.353570E-9
1.549580E+3,	39.895758E-9
1.549584E+3,	32.509139E-9
1.549588E+3,	27.335949E-9
1.549592E+3,	25.938139E-9
1.549596E+3,	27.394788E-9
1.549600E+3,	31.766799E-9
1.549604E+3,	39.267895E-9
1.549608E+3,	51.312558E-9
1.549612E+3,	63.969338E-9
1.549616E+3,	75.178591E-9
1.549620E+3,	88.217066E-9
1.549624E+3,	104.454235E-9
1.549628E+3,	119.086435E-9
1.549632E+3,	130.150239E-9
1.549636E+3,	140.741748E-9
1.549640E+3,	149.006551E-9
1.549644E+3,	155.562991E-9
1.549648E+3,	158.484752E-9
1.549652E+3,	158.174490E-9
1.549656E+3,	154.860179E-9
1.549660E+3,	148.346213E-9
1.549664E+3,	136.401835E-9
1.549668E+3,	123.066614E-9
1.549672E+3,	111.421246E-9
1.549676E+3,	97.495871E-9
1.549680E+3,	79.574944E-9
1.549684E+3,	63.707344E-9
1.549688E+3,	52.160957E-9
1.549692E+3,	41.666772E-9
1.549696E+3,	33.888378E-9
1.549700E+3,	27.874075E-9
1.549704E+3,	25.467409E-9
1.549708E+3,	26.172812E-9
1.549712E+3,	29.533798E-9
1.549716E+3,	35.437744E-9
1.549720E+3,	45.762005E-9
1.549724E+3,	57.284794E-9
1.549728E+3,	67.735874E-9
1.549732E+3,	80.449895E-9
1.549736E+3,	95.779834E-9
1.549740E+3,	109.707491E-9
1.549744E+3,	120.558499E-9
1.549748E+3,	131.035959E-9
1.549752E+3,	139.554415E-9
1.549756E+3,	146.790653E-9
1.549760E+3,	150.532451E-9
1.549764E+3,	151.028794E-9
1.549768E+3,	149.233539E-9
1.549772E+3,	143.315555E-9
1.549776E+3,	135.005933E-9
1.549780E+3,	126.218801E-9
1.549784E+3,	114.803547E-9
1.549788E+3,	102.634954E-9
1.549792E+3,	86.901212E-9
1.549796E+3,	71.636353E-9
1.549800E+3,	59.724880E-9
1.549804E+3,	48.484071E-9
1.549808E+3,	39.251543E-9
1.549812E+3,	30.651926E-9
1.549816E+3,	25.351152E-9
1.549820E+3,	23.681257E-9
1.549824E+3,	24.472090E-9
1.549828E+3,	28.886307E-9
1.549832E+3,	35.467297E-9
1.549836E+3,	42.375889E-9
1.549840E+3,	51.805783E-9
1.549844E+3,	63.254886E-9
1.549848E+3,	78.819401E-9
1.549852E+3,	92.608329E-9
1.549856E+3,	102.753889E-9
1.549860E+3,	113.769836E-9
1.549864E+3,	123.754195E-9
1.549868E+3,	133.973887E-9
1.549872E+3,	141.194778E-9
1.549876E+3,	144.933290E-9
1.549880E+3,	146.658016E-9
1.549884E+3,	145.540412E-9
1.549888E+3,	141.691476E-9
1.549892E+3,	136.151538E-9
1.549896E+3,	127.904212E-9
1.549900E+3,	117.243321E-9
1.549904E+3,	102.322708E-9
1.549908E+3,	88.448821E-9
1.549912E+3,	76.958480E-9
1.549916E+3,	64.329710E-9
1.549920E+3,	52.208052E-9
1.549924E+3,	39.654352E-9
1.549928E+3,	31.057670E-9
1.549932E+3,	26.371411E-9
1.549936E+3,	23.882529E-9
1.549940E+3,	24.752436E-9
1.549944E+3,	28.644528E-9
1.549948E+3,	34.183952E-9
1.549952E+3,	42.613374E-9
1.549956E+3,	52.770812E-9
1.549960E+3,	66.238018E-9
1.549964E+3,	79.582997E-9
1.549968E+3,	90.458767E-9
1.549972E+3,	102.316805E-9
1.549976E+3,	116.550937E-9
1.549980E+3,	127.884573E-9
1.549984E+3,	135.111136E-9
1.549988E+3,	141.092938E-9
1.549992E+3,	144.661636E-9
1.549996E+3,	145.762933E-9
1.550000E+3,	143.676431E-9
1.550004E+3,	139.396561E-9
1.550008E+3,	132.114593E-9
1.550012E+3,	120.629091E-9
1.550016E+3,	108.477470E-9
1.550020E+3,	97.695568E-9
1.550024E+3,	84.989573E-9
1.550028E+3,	72.082336E-9
1.550032E+3,	56.654634E-9
1.550036E+3,	44.116981E-9
1.550040E+3,	36.045135E-9
1.550044E+3,	29.494454E-9
1.550048E+3,	25.363042E-9
1.550052E+3,	24.752603E-9
1.550056E+3,	27.182212E-9
1.550060E+3,	32.914203E-9
1.550064E+3,	40.923731E-9
1.550068E+3,	53.048075E-9
1.550072E+3,	65.438890E-9
1.550076E+3,	76.500303E-9
1.550080E+3,	89.329191E-9
1.550084E+3,	104.766886E-9
1.550088E+3,	118.184192E-9
1.550092E+3,	127.388247E-9
1.550096E+3,	135.686239E-9
1.550100E+3,	142.008281E-9
1.550104E+3,	146.386038E-9
1.550108E+3,	147.417411E-9
1.550112E+3,	145.788081E-9
1.550116E+3,	141.561294E-9
1.550120E+3,	133.025025E-9
1.550124E+3,	122.924709E-9
1.550128E+3,	113.038809E-9
1.550132E+3,	100.583394E-9
1.550136E+3,	87.105948E-9
1.550140E+3,	70.892657E-9
1.550144E+3,	56.868173E-9
1.550148E+3,	46.745123E-9
1.550152E+3,	37.435473E-9
1.550156E+3,	29.678895E-9
1.550160E+3,	25.389846E-9
1.550164E+3,	24.630003E-9
1.550168E+3,	26.822151E-9
1.550172E+3,	31.850937E-9
1.550176E+3,	41.112524E-9
1.550180E+3,	51.898651E-9
1.550184E+3,	62.421436E-9
1.550188E+3,	75.744692E-9
1.550192E+3,	92.307049E-9
1.550196E+3,	106.517302E-9
1.550200E+3,	116.672553E-9
1.550204E+3,	126.604402E-9
1.550208E+3,	135.194007E-9
1.550212E+3,	142.993506E-9
1.550216E+3,	146.972167E-9
1.550220E+3,	147.584940E-9
1.550224E+3,	145.720669E-9
1.550228E+3,	140.103790E-9
1.550232E+3,	132.226049E-9
1.550236E+3,	123.766400E-9
1.550240E+3,	113.085318E-9
1.550244E+3,	98.349901E-9
1.550248E+3,	83.476393E-9
1.550252E+3,	71.516892E-9
1.550256E+3,	59.496699E-9
1.550260E+3,	48.879241E-9
1.550264E+3,	38.056069E-9
1.550268E+3,	30.392496E-9
1.550272E+3,	26.442838E-9
1.550276E+3,	24.735017E-9
1.550280E+3,	26.826750E-9
1.550284E+3,	31.712146E-9
1.550288E+3,	37.960877E-9
1.550292E+3,	47.356909E-9
1.550296E+3,	59.074031E-9
1.550300E+3,	74.831838E-9
1.550304E+3,	89.730211E-9
1.550308E+3,	101.282416E-9
1.550312E+3,	113.558049E-9
1.550316E+3,	126.482604E-9
1.550320E+3,	136.061250E-9
1.550324E+3,	141.992502E-9
1.550328E+3,	146.174850E-9
1.550332E+3,	147.590078E-9
1.550336E+3,	145.862986E-9
1.550340E+3,	141.451605E-9
1.550344E+3,	135.619770E-9
1.550348E+3,	127.272243E-9
1.550352E+3,	114.435168E-9
1.550356E+3,	101.225904E-9
1.550360E+3,	90.295335E-9
1.550364E+3,	78.112308E-9
1.550368E+3,	66.201874E-9
1.550372E+3,	52.518510E-9
1.550376E+3,	41.142794E-9
1.550380E+3,	34.015277E-9
1.550384E+3,	28.281115E-9
1.550388E+3,	24.837154E-9
1.550392E+3,	24.962031E-9
1.550396E+3,	27.804833E-9
1.550400E+3,	33.667399E-9
1.550404E+3,	42.183381E-9
1.550408E+3,	54.715479E-9
1.550412E+3,	68.082994E-9
1.550416E+3,	79.870556E-9
1.550420E+3,	92.482492E-9
1.550424E+3,	107.190918E-9
1.550428E+3,	119.900959E-9
1.550432E+3,	128.943483E-9
1.550436E+3,	136.740971E-9
1.550440E+3,	141.797186E-9
1.550444E+3,	144.661090E-9
1.550448E+3,	144.568922E-9
1.550452E+3,	141.956510E-9
1.550456E+3,	136.595803E-9
1.550460E+3,	127.238063E-9
1.550464E+3,	116.720395E-9
1.550468E+3,	107.029617E-9
1.550472E+3,	95.234002E-9
1.550476E+3,	80.693507E-9
1.550480E+3,	67.154009E-9
1.550484E+3,	56.367195E-9
1.550488E+3,	45.645583E-9
1.550492E+3,	36.757936E-9
1.550496E+3,	29.287772E-9
1.550500E+3,	25.423444E-9
1.550504E+3,	24.534283E-9
1.550508E+3,	26.056220E-9
1.550512E+3,	31.662861E-9
1.550516E+3,	39.886830E-9
1.550520E+3,	48.613290E-9
1.550524E+3,	59.350417E-9
1.550528E+3,	71.264140E-9
1.550532E+3,	86.834746E-9
1.550536E+3,	101.390086E-9
1.550540E+3,	112.803227E-9
1.550544E+3,	124.197637E-9
1.550548E+3,	134.924972E-9
1.550552E+3,	142.111630E-9
1.550556E+3,	145.521642E-9
1.550560E+3,	146.741388E-9
1.550564E+3,	145.274943E-9
1.550568E+3,	140.093649E-9
1.550572E+3,	132.701864E-9
1.550576E+3,	125.006737E-9
1.550580E+3,	115.145447E-9
1.550584E+3,	101.311194E-9
1.550588E+3,	88.035473E-9
1.550592E+3,	76.823493E-9
1.550596E+3,	64.586310E-9
1.550600E+3,	53.523114E-9
1.550604E+3,	42.309364E-9
1.550608E+3,	34.009509E-9
1.550612E+3,	29.049651E-9
1.550616E+3,	25.931486E-9
1.550620E+3,	25.927744E-9
1.550624E+3,	28.924841E-9
1.550628E+3,	33.724653E-9
1.550632E+3,	41.444582E-9
1.550636E+3,	51.613873E-9
1.550640E+3,	66.145992E-9
1.550644E+3,	80.600605E-9
1.550648E+3,	92.663340E-9
1.550652E+3,	105.683208E-9
1.550656E+3,	119.687486E-9
1.550660E+3,	130.478224E-9
1.550664E+3,	137.718723E-9
1.550668E+3,	143.836459E-9
1.550672E+3,	147.168106E-9
1.550676E+3,	147.173865E-9
1.550680E+3,	144.185059E-9
1.550684E+3,	139.308388E-9
1.550688E+3,	132.036220E-9
1.550692E+3,	120.929589E-9
1.550696E+3,	108.315798E-9
1.550700E+3,	96.750230E-9
1.550704E+3,	84.250743E-9
1.550708E+3,	69.630079E-9
1.550712E+3,	57.081274E-9
1.550716E+3,	47.992602E-9
1.550720E+3,	38.941158E-9
1.550724E+3,	31.621076E-9
1.550728E+3,	26.474205E-9
1.550732E+3,	25.092196E-9
1.550736E+3,	26.493153E-9
1.550740E+3,	30.351798E-9
1.550744E+3,	38.481975E-9
1.550748E+3,	48.833393E-9
1.550752E+3,	59.061285E-9
1.550756E+3,	71.418635E-9
1.550760E+3,	84.181118E-9
1.550764E+3,	99.329146E-9
1.550768E+3,	112.594537E-9
1.550772E+3,	122.640261E-9
1.550776E+3,	132.648735E-9
1.550780E+3,	140.954730E-9
1.550784E+3,	145.180525E-9
1.550788E+3,	145.743978E-9
1.550792E+3,	143.610520E-9
1.550796E+3,	138.596259E-9
1.550800E+3,	129.038579E-9
1.550804E+3,	117.984151E-9
1.550808E+3,	107.705542E-9
1.550812E+3,	95.401994E-9
1.550816E+3,	80.416816E-9
1.550820E+3,	67.335074E-9
1.550824E+3,	57.347204E-9
1.550828E+3,	47.152186E-9
1.550832E+3,	38.221344E-9
1.550836E+3,	30.442155E-9
1.550840E+3,	26.236024E-9
1.550844E+3,	24.988253E-9
1.550848E+3,	25.785219E-9
1.550852E+3,	30.228366E-9
1.550856E+3,	37.276696E-9
1.550860E+3,	45.292182E-9
1.550864E+3,	56.005908E-9
1.550868E+3,	67.947749E-9
1.550872E+3,	83.057510E-9
1.550876E+3,	97.640138E-9
1.550880E+3,	109.613247E-9
1.550884E+3,	121.617429E-9
1.550888E+3,	133.334322E-9
1.550892E+3,	141.128542E-9
1.550896E+3,	145.077669E-9
1.550900E+3,	147.136489E-9
1.550904E+3,	146.427186E-9
1.550908E+3,	141.632209E-9
1.550912E+3,	134.189408E-9
1.550916E+3,	126.046980E-9
1.550920E+3,	115.708906E-9
1.550924E+3,	101.835041E-9
1.550928E+3,	88.444922E-9
1.550932E+3,	77.182841E-9
1.550936E+3,	64.856745E-9
1.550940E+3,	53.532834E-9
1.550944E+3,	41.959490E-9
1.550948E+3,	33.950787E-9
1.550952E+3,	29.659087E-9
1.550956E+3,	27.046737E-9
1.550960E+3,	27.341487E-9
1.550964E+3,	30.988771E-9
1.550968E+3,	36.553326E-9
1.550972E+3,	44.496061E-9
1.550976E+3,	55.995936E-9
1.550980E+3,	68.183281E-9
1.550984E+3,	79.536483E-9
1.550988E+3,	92.884533E-9
1.550992E+3,	106.055521E-9
1.550996E+3,	120.695285E-9
1.551000E+3,	132.416014E-9
1.551004E+3,	140.138984E-9
1.551008E+3,	146.729257E-9
1.551012E+3,	151.033626E-9
1.551016E+3,	151.530013E-9
1.551020E+3,	149.157775E-9
1.551024E+3,	143.957870E-9
1.551028E+3,	134.110398E-9
1.551032E+3,	122.583644E-9
1.551036E+3,	111.820531E-9
1.551040E+3,	98.638976E-9
1.551044E+3,	84.545238E-9
1.551048E+3,	68.669451E-9
1.551052E+3,	55.772888E-9
1.551056E+3,	46.649175E-9
1.551060E+3,	38.561968E-9
1.551064E+3,	31.646982E-9
1.551068E+3,	27.935288E-9
1.551072E+3,	27.376262E-9
1.551076E+3,	29.246376E-9
1.551080E+3,	34.571829E-9
1.551084E+3,	41.793615E-9
1.551088E+3,	49.868955E-9
1.551092E+3,	61.086985E-9
1.551096E+3,	73.793446E-9
1.551100E+3,	89.713721E-9
1.551104E+3,	103.897598E-9
1.551108E+3,	114.995644E-9
1.551112E+3,	126.645657E-9
1.551116E+3,	138.803684E-9
1.551120E+3,	147.267525E-9
1.551124E+3,	151.565130E-9
1.551128E+3,	153.567641E-9
1.551132E+3,	151.812092E-9
1.551136E+3,	146.798991E-9
1.551140E+3,	140.158666E-9
1.551144E+3,	130.356446E-9
1.551148E+3,	118.511724E-9
1.551152E+3,	103.356595E-9
1.551156E+3,	89.281109E-9
1.551160E+3,	77.572282E-9
1.551164E+3,	65.498099E-9
1.551168E+3,	52.580472E-9
1.551172E+3,	42.135067E-9
1.551176E+3,	35.724979E-9
1.551180E+3,	31.098471E-9
1.551184E+3,	29.231049E-9
1.551188E+3,	30.658779E-9
1.551192E+3,	34.369884E-9
1.551196E+3,	40.998463E-9
1.551200E+3,	50.082765E-9
1.551204E+3,	63.451872E-9
1.551208E+3,	76.912114E-9
1.551212E+3,	88.694617E-9
1.551216E+3,	102.132099E-9
1.551220E+3,	117.477845E-9
1.551224E+3,	130.449386E-9
1.551228E+3,	139.587744E-9
1.551232E+3,	148.227683E-9
1.551236E+3,	155.131632E-9
1.551240E+3,	158.111655E-9
1.551244E+3,	157.826918E-9
1.551248E+3,	154.699969E-9
1.551252E+3,	148.741000E-9
1.551256E+3,	138.189616E-9
1.551260E+3,	125.458446E-9
1.551264E+3,	113.724025E-9
1.551268E+3,	100.305901E-9
1.551272E+3,	83.363193E-9
1.551276E+3,	68.325567E-9
1.551280E+3,	57.014534E-9
1.551284E+3,	46.146212E-9
1.551288E+3,	36.012882E-9
1.551292E+3,	30.037529E-9
1.551296E+3,	27.956853E-9
1.551300E+3,	27.964748E-9
1.551304E+3,	31.491483E-9
1.551308E+3,	37.964960E-9
1.551312E+3,	45.527065E-9
1.551316E+3,	55.383146E-9
1.551320E+3,	66.330157E-9
1.551324E+3,	80.350893E-9
1.551328E+3,	93.794429E-9
1.551332E+3,	105.422421E-9
1.551336E+3,	118.008134E-9
1.551340E+3,	130.890560E-9
1.551344E+3,	140.537147E-9
1.551348E+3,	146.413619E-9
1.551352E+3,	150.696466E-9
1.551356E+3,	152.400009E-9
1.551360E+3,	150.604182E-9
1.551364E+3,	146.201304E-9
1.551368E+3,	138.955223E-9
1.551372E+3,	129.405592E-9
1.551376E+3,	115.804507E-9
1.551380E+3,	102.347874E-9
1.551384E+3,	90.557390E-9
1.551388E+3,	76.807211E-9
1.551392E+3,	61.399838E-9
1.551396E+3,	49.451788E-9
1.551400E+3,	41.575558E-9
1.551404E+3,	34.580425E-9
1.551408E+3,	29.273549E-9
1.551412E+3,	27.402511E-9
1.551416E+3,	28.431285E-9
1.551420E+3,	31.951391E-9
1.551424E+3,	38.247238E-9
1.551428E+3,	48.183152E-9
1.551432E+3,	58.870054E-9
1.551436E+3,	69.261317E-9
1.551440E+3,	81.603740E-9
1.551444E+3,	96.384429E-9
1.551448E+3,	109.315822E-9
1.551452E+3,	119.009228E-9
1.551456E+3,	128.487319E-9
1.551460E+3,	137.679187E-9
1.551464E+3,	143.770106E-9
1.551468E+3,	146.368592E-9
1.551472E+3,	146.752171E-9
1.551476E+3,	144.687678E-9
1.551480E+3,	139.146981E-9
1.551484E+3,	131.433781E-9
1.551488E+3,	123.098992E-9
1.551492E+3,	112.097368E-9
1.551496E+3,	96.710034E-9
1.551500E+3,	82.319865E-9
1.551504E+3,	71.107511E-9
1.551508E+3,	59.380693E-9
1.551512E+3,	46.648428E-9
1.551516E+3,	37.034263E-9
1.551520E+3,	31.454477E-9
1.551524E+3,	27.741032E-9
1.551528E+3,	27.375224E-9
1.551532E+3,	30.299323E-9
1.551536E+3,	34.958181E-9
1.551540E+3,	41.987680E-9
1.551544E+3,	50.976765E-9
1.551548E+3,	64.292609E-9
1.551552E+3,	77.547590E-9
1.551556E+3,	88.594112E-9
1.551560E+3,	100.565523E-9
1.551564E+3,	113.697538E-9
1.551568E+3,	124.883977E-9
1.551572E+3,	133.053161E-9
1.551576E+3,	140.391785E-9
1.551580E+3,	145.786550E-9
1.551584E+3,	147.772933E-9
1.551588E+3,	146.903578E-9
1.551592E+3,	143.456698E-9
1.551596E+3,	137.607895E-9
1.551600E+3,	126.987020E-9
1.551604E+3,	115.013261E-9
1.551608E+3,	104.027050E-9
1.551612E+3,	91.088237E-9
1.551616E+3,	75.724661E-9
1.551620E+3,	62.115195E-9
1.551624E+3,	51.672496E-9
1.551628E+3,	41.813678E-9
1.551632E+3,	33.125179E-9
1.551636E+3,	28.058028E-9
1.551640E+3,	26.377438E-9
1.551644E+3,	27.014150E-9
1.551648E+3,	30.269783E-9
1.551652E+3,	37.669326E-9
1.551656E+3,	47.335106E-9
1.551660E+3,	56.617709E-9
1.551664E+3,	67.675399E-9
1.551668E+3,	82.027802E-9
1.551672E+3,	95.376668E-9
1.551676E+3,	105.912758E-9
1.551680E+3,	116.856074E-9
1.551684E+3,	127.855399E-9
1.551688E+3,	135.390986E-9
1.551692E+3,	139.527671E-9
1.551696E+3,	142.051080E-9
1.551700E+3,	142.269354E-9
1.551704E+3,	139.062879E-9
1.551708E+3,	133.095110E-9
1.551712E+3,	125.978529E-9
1.551716E+3,	116.414255E-9
1.551720E+3,	103.721284E-9
1.551724E+3,	90.925628E-9
1.551728E+3,	79.731918E-9
1.551732E+3,	67.480606E-9
1.551736E+3,	54.057885E-9
1.551740E+3,	43.102301E-9
1.551744E+3,	35.795342E-9
1.551748E+3,	29.871871E-9
1.551752E+3,	26.309342E-9
1.551756E+3,	26.286662E-9
1.551760E+3,	29.021187E-9
1.551764E+3,	34.705858E-9
1.551768E+3,	42.685025E-9
1.551772E+3,	53.909689E-9
1.551776E+3,	65.675768E-9
1.551780E+3,	76.069667E-9
1.551784E+3,	88.018170E-9
1.551788E+3,	102.593717E-9
1.551792E+3,	114.413394E-9
1.551796E+3,	122.105892E-9
1.551800E+3,	128.903761E-9
1.551804E+3,	134.618961E-9
1.551808E+3,	137.548915E-9
1.551812E+3,	137.742946E-9
1.551816E+3,	135.682787E-9
1.551820E+3,	131.211730E-9
1.551824E+3,	123.309909E-9
1.551828E+3,	113.751449E-9
1.551832E+3,	104.051634E-9
1.551836E+3,	92.362802E-9
1.551840E+3,	77.593783E-9
1.551844E+3,	64.417629E-9
1.551848E+3,	54.434546E-9
1.551852E+3,	44.265242E-9
1.551856E+3,	34.439012E-9
1.551860E+3,	28.014037E-9
1.551864E+3,	25.068779E-9
1.551868E+3,	24.238682E-9
1.551872E+3,	26.002791E-9
1.551876E+3,	31.497870E-9
1.551880E+3,	39.133849E-9
1.551884E+3,	47.255596E-9
1.551888E+3,	57.737683E-9
1.551892E+3,	71.817690E-9
1.551896E+3,	85.056419E-9
1.551900E+3,	95.366959E-9
1.551904E+3,	106.234144E-9
1.551908E+3,	117.302858E-9
1.551912E+3,	125.526042E-9
1.551916E+3,	130.496500E-9
1.551920E+3,	133.851949E-9
1.551924E+3,	134.662357E-9
1.551928E+3,	132.096043E-9
1.551932E+3,	127.592192E-9
1.551936E+3,	122.274448E-9
1.551940E+3,	114.310689E-9
1.551944E+3,	102.559368E-9
1.551948E+3,	90.477312E-9
1.551952E+3,	79.891119E-9
1.551956E+3,	68.468384E-9
1.551960E+3,	55.882492E-9
1.551964E+3,	45.467207E-9
1.551968E+3,	37.925608E-9
1.551972E+3,	30.943646E-9
1.551976E+3,	25.677666E-9
1.551980E+3,	23.802804E-9
1.551984E+3,	24.648172E-9
1.551988E+3,	27.709871E-9
1.551992E+3,	33.179511E-9
1.551996E+3,	42.901355E-9
1.552000E+3,	54.090686E-9
1.552004E+3,	64.600414E-9
1.552008E+3,	76.347389E-9
1.552012E+3,	89.504587E-9
1.552016E+3,	101.133819E-9
1.552020E+3,	110.159314E-9
1.552024E+3,	118.426870E-9
1.552028E+3,	125.772719E-9
1.552032E+3,	129.759092E-9
1.552036E+3,	130.878051E-9
1.552040E+3,	130.006891E-9
1.552044E+3,	126.129989E-9
1.552048E+3,	120.153940E-9
1.552052E+3,	113.470597E-9
1.552056E+3,	104.612127E-9
1.552060E+3,	92.444445E-9
1.552064E+3,	81.066157E-9
1.552068E+3,	71.710459E-9
1.552072E+3,	60.828544E-9
1.552076E+3,	50.468581E-9
1.552080E+3,	39.621901E-9
1.552084E+3,	31.874245E-9
1.552088E+3,	27.590688E-9
1.552092E+3,	24.831577E-9
1.552096E+3,	24.726440E-9
1.552100E+3,	27.512741E-9
1.552104E+3,	32.191158E-9
1.552108E+3,	39.186108E-9
1.552112E+3,	49.593190E-9
1.552116E+3,	60.403325E-9
1.552120E+3,	70.100169E-9
1.552124E+3,	80.855724E-9
1.552128E+3,	93.752790E-9
1.552132E+3,	105.110202E-9
1.552136E+3,	113.385416E-9
1.552140E+3,	120.571626E-9
1.552144E+3,	126.349069E-9
1.552148E+3,	129.332274E-9
1.552152E+3,	129.717452E-9
1.552156E+3,	127.913857E-9
1.552160E+3,	122.511764E-9
1.552164E+3,	115.190747E-9
1.552168E+3,	107.939788E-9
1.552172E+3,	99.028969E-9
1.552176E+3,	89.295998E-9
1.552180E+3,	76.131431E-9
1.552184E+3,	64.092495E-9
1.552188E+3,	54.691325E-9
1.552192E+3,	45.178037E-9
1.552196E+3,	36.131477E-9
1.552200E+3,	29.533172E-9
1.552204E+3,	25.710704E-9
1.552208E+3,	23.504181E-9
1.552212E+3,	23.905195E-9
1.552216E+3,	27.024172E-9
1.552220E+3,	31.763785E-9
1.552224E+3,	38.644976E-9
1.552228E+3,	49.361134E-9
1.552232E+3,	60.930095E-9
1.552236E+3,	71.081369E-9
1.552240E+3,	82.719537E-9
1.552244E+3,	96.210758E-9
1.552248E+3,	107.353358E-9
1.552252E+3,	114.932478E-9
1.552256E+3,	121.764596E-9
1.552260E+3,	127.245395E-9
1.552264E+3,	129.770281E-9
1.552268E+3,	129.378374E-9
1.552272E+3,	126.798147E-9
1.552276E+3,	122.177205E-9
1.552280E+3,	114.138336E-9
1.552284E+3,	104.803336E-9
1.552288E+3,	95.824358E-9
1.552292E+3,	84.800549E-9
1.552296E+3,	71.399649E-9
1.552300E+3,	59.574375E-9
1.552304E+3,	50.818446E-9
1.552308E+3,	42.022499E-9
1.552312E+3,	33.221118E-9
1.552316E+3,	27.111842E-9
1.552320E+3,	24.251847E-9
1.552324E+3,	23.472164E-9
1.552328E+3,	25.796050E-9
1.552332E+3,	30.644987E-9
1.552336E+3,	36.587297E-9
1.552340E+3,	45.156122E-9
1.552344E+3,	57.561056E-9
1.552348E+3,	69.733663E-9
1.552352E+3,	79.730634E-9
1.552356E+3,	90.598176E-9
1.552360E+3,	102.674647E-9
1.552364E+3,	112.386329E-9
1.552368E+3,	119.094461E-9
1.552372E+3,	124.831696E-9
1.552376E+3,	128.163192E-9
1.552380E+3,	128.833515E-9
1.552384E+3,	126.712452E-9
1.552388E+3,	122.672070E-9
1.552392E+3,	115.925133E-9
1.552396E+3,	105.614321E-9
1.552400E+3,	94.637987E-9
1.552404E+3,	84.531894E-9
1.552408E+3,	73.433653E-9
1.552412E+3,	61.063153E-9
1.552416E+3,	50.495883E-9
1.552420E+3,	42.599695E-9
1.552424E+3,	34.609722E-9
1.552428E+3,	27.571983E-9
1.552432E+3,	23.821580E-9
1.552436E+3,	22.829113E-9
1.552440E+3,	23.591904E-9
1.552444E+3,	27.504750E-9
1.552448E+3,	33.696495E-9
1.552452E+3,	40.529786E-9
1.552456E+3,	49.556185E-9
1.552460E+3,	61.698998E-9
1.552464E+3,	73.071722E-9
1.552468E+3,	82.458931E-9
1.552472E+3,	92.837014E-9
1.552476E+3,	102.751405E-9
1.552480E+3,	112.402438E-9
1.552484E+3,	118.470519E-9
1.552488E+3,	121.446456E-9
1.552492E+3,	122.620344E-9
1.552496E+3,	120.820093E-9
1.552500E+3,	116.320986E-9
1.552504E+3,	110.570159E-9
1.552508E+3,	102.839608E-9
1.552512E+3,	91.854316E-9
1.552516E+3,	81.218076E-9
1.552520E+3,	72.391636E-9
1.552524E+3,	62.311120E-9
1.552528E+3,	50.561852E-9
1.552532E+3,	40.747730E-9
1.552536E+3,	34.175521E-9
1.552540E+3,	28.395998E-9
1.552544E+3,	23.652156E-9
1.552548E+3,	21.562071E-9
1.552552E+3,	21.835299E-9
1.552556E+3,	24.354239E-9
1.552560E+3,	30.244723E-9
1.552564E+3,	37.437329E-9
1.552568E+3,	44.492115E-9
1.552572E+3,	53.454423E-9
1.552576E+3,	63.522295E-9
1.552580E+3,	75.800618E-9
1.552584E+3,	86.822033E-9
1.552588E+3,	95.456346E-9
1.552592E+3,	103.251641E-9
1.552596E+3,	110.118504E-9
1.552600E+3,	114.221310E-9
1.552604E+3,	115.818555E-9
1.552608E+3,	115.538879E-9
1.552612E+3,	112.021270E-9
1.552616E+3,	106.588464E-9
1.552620E+3,	100.546192E-9
1.552624E+3,	92.610079E-9
1.552628E+3,	81.807275E-9
1.552632E+3,	70.861673E-9
1.552636E+3,	61.522521E-9
1.552640E+3,	51.706594E-9
1.552644E+3,	41.083756E-9
1.552648E+3,	32.792906E-9
1.552652E+3,	27.626319E-9
1.552656E+3,	23.383671E-9
1.552660E+3,	20.927120E-9
1.552664E+3,	21.026174E-9
1.552668E+3,	22.993547E-9
1.552672E+3,	26.876840E-9
1.552676E+3,	32.504363E-9
1.552680E+3,	41.023893E-9
1.552684E+3,	50.474970E-9
1.552688E+3,	59.389950E-9
1.552692E+3,	69.451951E-9
1.552696E+3,	81.343688E-9
1.552700E+3,	91.218934E-9
1.552704E+3,	98.491013E-9
1.552708E+3,	105.168224E-9
1.552712E+3,	111.005562E-9
1.552716E+3,	113.836308E-9
1.552720E+3,	114.001484E-9
1.552724E+3,	112.196736E-9
1.552728E+3,	107.186423E-9
1.552732E+3,	100.461121E-9
1.552736E+3,	93.693065E-9
1.552740E+3,	84.954172E-9
1.552744E+3,	72.866462E-9
1.552748E+3,	61.636614E-9
1.552752E+3,	53.091462E-9
1.552756E+3,	44.383985E-9
1.552760E+3,	35.033057E-9
1.552764E+3,	27.556396E-9
1.552768E+3,	22.914864E-9
1.552772E+3,	19.634788E-9
1.552776E+3,	18.382433E-9
1.552780E+3,	19.582567E-9
1.552784E+3,	22.766472E-9
1.552788E+3,	27.100770E-9
1.552792E+3,	33.530208E-9
1.552796E+3,	42.819972E-9
1.552800E+3,	52.171415E-9
1.552804E+3,	60.291730E-9
1.552808E+3,	69.011486E-9
1.552812E+3,	78.947234E-9
1.552816E+3,	87.148136E-9
1.552820E+3,	92.739262E-9
1.552824E+3,	97.658381E-9
1.552828E+3,	101.147236E-9
1.552832E+3,	102.051347E-9
1.552836E+3,	101.062779E-9
1.552840E+3,	98.439620E-9
1.552844E+3,	92.872771E-9
1.552848E+3,	85.695189E-9
1.552852E+3,	78.652662E-9
1.552856E+3,	70.153645E-9
1.552860E+3,	59.801927E-9
1.552864E+3,	50.330429E-9
1.552868E+3,	42.644722E-9
1.552872E+3,	34.466317E-9
1.552876E+3,	27.514547E-9
1.552880E+3,	21.419864E-9
1.552884E+3,	17.811964E-9
1.552888E+3,	16.585667E-9
1.552892E+3,	16.765243E-9
1.552896E+3,	19.245921E-9
1.552900E+3,	23.431877E-9
1.552904E+3,	28.226426E-9
1.552908E+3,	34.273864E-9
1.552912E+3,	42.290141E-9
1.552916E+3,	50.025977E-9
1.552920E+3,	56.515647E-9
1.552924E+3,	63.628486E-9
1.552928E+3,	71.606282E-9
1.552932E+3,	78.049715E-9
1.552936E+3,	82.197778E-9
1.552940E+3,	85.532771E-9
1.552944E+3,	87.714953E-9
1.552948E+3,	88.030653E-9
1.552952E+3,	86.659208E-9
1.552956E+3,	83.798279E-9
1.552960E+3,	78.352448E-9
1.552964E+3,	72.027931E-9
1.552968E+3,	66.204922E-9
1.552972E+3,	58.874666E-9
1.552976E+3,	51.018022E-9
1.552980E+3,	41.606937E-9
1.552984E+3,	33.520321E-9
1.552988E+3,	27.821417E-9
1.552992E+3,	22.612238E-9
1.552996E+3,	17.993129E-9
1.553000E+3,	15.122239E-9
1.553004E+3,	14.175687E-9
1.553008E+3,	14.455890E-9
1.553012E+3,	16.624145E-9
1.553016E+3,	20.058138E-9
1.553020E+3,	23.778651E-9
1.553024E+3,	28.543733E-9
1.553028E+3,	35.225993E-9
1.553032E+3,	42.033607E-9
1.553036E+3,	47.792868E-9
1.553040E+3,	54.026016E-9
1.553044E+3,	60.696523E-9
1.553048E+3,	65.775438E-9
1.553052E+3,	68.998308E-9
1.553056E+3,	71.709978E-9
1.553060E+3,	73.341186E-9
1.553064E+3,	73.212347E-9
1.553068E+3,	71.761812E-9
1.553072E+3,	68.342774E-9
1.553076E+3,	63.956337E-9
1.553080E+3,	59.434147E-9
1.553084E+3,	53.465746E-9
1.553088E+3,	45.645562E-9
1.553092E+3,	38.294795E-9
1.553096E+3,	32.573821E-9
1.553100E+3,	27.016305E-9
1.553104E+3,	21.432946E-9
1.553108E+3,	17.022788E-9
1.553112E+3,	14.333159E-9
1.553116E+3,	12.620625E-9
1.553120E+3,	12.425991E-9
1.553124E+3,	13.696486E-9
1.553128E+3,	15.769205E-9
1.553132E+3,	18.916657E-9
1.553136E+3,	23.999760E-9
1.553140E+3,	29.480442E-9
1.553144E+3,	34.168308E-9
1.553148E+3,	39.019409E-9
1.553152E+3,	44.532450E-9
1.553156E+3,	49.446882E-9
1.553160E+3,	52.997076E-9
1.553164E+3,	56.208393E-9
1.553168E+3,	58.963451E-9
1.553172E+3,	60.336136E-9
1.553176E+3,	60.465166E-9
1.553180E+3,	59.595973E-9
1.553184E+3,	57.178880E-9
1.553188E+3,	53.633963E-9
1.553192E+3,	49.719952E-9
1.553196E+3,	44.814618E-9
1.553200E+3,	38.618434E-9
1.553204E+3,	32.827864E-9
1.553208E+3,	28.153689E-9
1.553212E+3,	23.312555E-9
1.553216E+3,	18.073573E-9
1.553220E+3,	14.172553E-9
1.553224E+3,	12.043995E-9
1.553228E+3,	10.634261E-9
1.553232E+3,	10.300484E-9
1.553236E+3,	11.103269E-9
1.553240E+3,	12.590309E-9
1.553244E+3,	14.960256E-9
1.553248E+3,	18.790196E-9
1.553252E+3,	22.840518E-9
1.553256E+3,	26.110012E-9
1.553260E+3,	29.736671E-9
1.553264E+3,	34.167864E-9
1.553268E+3,	38.151546E-9
1.553272E+3,	40.800820E-9
1.553276E+3,	43.125679E-9
1.553280E+3,	45.031619E-9
1.553284E+3,	45.906655E-9
1.553288E+3,	45.806431E-9
1.553292E+3,	45.012965E-9
1.553296E+3,	42.979206E-9
1.553300E+3,	40.230446E-9
1.553304E+3,	37.392965E-9
1.553308E+3,	33.785090E-9
1.553312E+3,	29.196450E-9
1.553316E+3,	24.752135E-9
1.553320E+3,	21.158457E-9
1.553324E+3,	17.423772E-9
1.553328E+3,	13.447558E-9
1.553332E+3,	10.548245E-9
1.553336E+3,	8.975108E-9
1.553340E+3,	7.871751E-9
1.553344E+3,	7.520266E-9
1.553348E+3,	8.063061E-9
1.553352E+3,	9.126117E-9
1.553356E+3,	10.811901E-9
1.553360E+3,	13.407385E-9
1.553364E+3,	16.079313E-9
1.553368E+3,	18.407342E-9
1.553372E+3,	20.914982E-9
1.553376E+3,	23.962803E-9
1.553380E+3,	26.539255E-9
1.553384E+3,	28.221818E-9
1.553388E+3,	29.643240E-9
1.553392E+3,	30.710445E-9
1.553396E+3,	31.121651E-9
1.553400E+3,	30.920405E-9
1.553404E+3,	30.154096E-9
1.553408E+3,	28.633046E-9
1.553412E+3,	26.769694E-9
1.553416E+3,	24.927681E-9
1.553420E+3,	22.587234E-9
1.553424E+3,	19.467601E-9
1.553428E+3,	16.441367E-9
1.553432E+3,	14.025019E-9
1.553436E+3,	11.523187E-9
1.553440E+3,	8.978628E-9
1.553444E+3,	7.156719E-9
1.553448E+3,	6.088761E-9
1.553452E+3,	5.343406E-9
1.553456E+3,	5.097493E-9
1.553460E+3,	5.458667E-9
1.553464E+3,	6.135717E-9
1.553468E+3,	7.154074E-9
1.553472E+3,	8.690992E-9
1.553476E+3,	10.340626E-9
1.553480E+3,	11.730919E-9
1.553484E+3,	13.367646E-9
1.553488E+3,	15.195621E-9
1.553492E+3,	16.643858E-9
1.553496E+3,	17.569699E-9
1.553500E+3,	18.380383E-9
1.553504E+3,	19.062171E-9
1.553508E+3,	19.303129E-9
1.553512E+3,	19.186424E-9
1.553516E+3,	18.719453E-9
1.553520E+3,	17.761402E-9
1.553524E+3,	16.576522E-9
1.553528E+3,	15.426922E-9
1.553532E+3,	13.937961E-9
1.553536E+3,	12.052869E-9
1.553540E+3,	10.263180E-9
1.553544E+3,	8.865932E-9
1.553548E+3,	7.433709E-9
1.553552E+3,	5.987539E-9
1.553556E+3,	4.891298E-9
1.553560E+3,	4.221823E-9
1.553564E+3,	3.712962E-9
1.553568E+3,	3.524401E-9
1.553572E+3,	3.640954E-9
1.553576E+3,	3.932361E-9
1.553580E+3,	4.599664E-9
1.553584E+3,	5.402565E-9
1.553588E+3,	6.186983E-9
1.553592E+3,	7.142927E-9
1.553596E+3,	8.232107E-9
1.553600E+3,	9.135871E-9
1.553604E+3,	9.799789E-9
1.553608E+3,	10.393483E-9
1.553612E+3,	10.967037E-9
1.553616E+3,	11.225425E-9
1.553620E+3,	11.278337E-9
1.553624E+3,	11.146234E-9
1.553628E+3,	10.787088E-9
1.553632E+3,	10.296149E-9
1.553636E+3,	9.720123E-9
1.553640E+3,	9.009981E-9
1.553644E+3,	8.007992E-9
1.553648E+3,	7.055001E-9
1.553652E+3,	6.287401E-9
1.553656E+3,	5.488767E-9
1.553660E+3,	4.576350E-9
1.553664E+3,	3.774274E-9
1.553668E+3,	3.226997E-9
1.553672E+3,	2.705609E-9
1.553676E+3,	2.344749E-9
1.553680E+3,	2.168382E-9
1.553684E+3,	2.160411E-9
1.553688E+3,	2.274105E-9
1.553692E+3,	2.577306E-9
1.553696E+3,	3.014511E-9
1.553700E+3,	3.414745E-9
1.553704E+3,	3.906069E-9
1.553708E+3,	4.458283E-9
1.553712E+3,	4.928736E-9
1.553716E+3,	5.291521E-9
1.553720E+3,	5.648917E-9
1.553724E+3,	5.968923E-9
1.553728E+3,	6.162181E-9
1.553732E+3,	6.241110E-9
1.553736E+3,	6.203851E-9
1.553740E+3,	6.010004E-9
1.553744E+3,	5.746709E-9
1.553748E+3,	5.457051E-9
1.553752E+3,	5.065817E-9
1.553756E+3,	4.539169E-9
1.553760E+3,	4.000262E-9
1.553764E+3,	3.586104E-9
1.553768E+3,	3.109003E-9
1.553772E+3,	2.550579E-9
1.553776E+3,	2.106333E-9
1.553780E+3,	1.804397E-9
1.553784E+3,	1.525088E-9
1.553788E+3,	1.290315E-9
1.553792E+3,	1.166702E-9
1.553796E+3,	1.128911E-9
1.553800E+3,	1.167771E-9
1.553804E+3,	1.259418E-9
1.553808E+3,	1.447626E-9
1.553812E+3,	1.608975E-9
1.553816E+3,	1.829318E-9
1.553820E+3,	2.080400E-9
1.553824E+3,	2.349061E-9
1.553828E+3,	2.553230E-9
1.553832E+3,	2.756088E-9
1.553836E+3,	2.937641E-9
1.553840E+3,	3.019338E-9
1.553844E+3,	3.045760E-9
1.553848E+3,	3.038554E-9
1.553852E+3,	2.958351E-9
1.553856E+3,	2.803480E-9
1.553860E+3,	2.628339E-9
1.553864E+3,	2.439632E-9
1.553868E+3,	2.164928E-9
1.553872E+3,	1.897768E-9
1.553876E+3,	1.698626E-9
1.553880E+3,	1.465782E-9
1.553884E+3,	1.174126E-9
1.553888E+3,	977.026273E-12
1.553892E+3,	834.947951E-12
1.553896E+3,	731.772822E-12
1.553900E+3,	619.135973E-12
1.553904E+3,	554.851541E-12
1.553908E+3,	537.077251E-12
1.553912E+3,	557.621830E-12
1.553916E+3,	614.749783E-12
1.553920E+3,	711.234050E-12
1.553924E+3,	782.832292E-12
1.553928E+3,	870.000495E-12
1.553932E+3,	1.009426E-9
1.553936E+3,	1.118001E-9
1.553940E+3,	1.205612E-9
1.553944E+3,	1.278032E-9
1.553948E+3,	1.337557E-9
1.553952E+3,	1.354745E-9
1.553956E+3,	1.341091E-9
1.553960E+3,	1.311368E-9
1.553964E+3,	1.285543E-9
1.553968E+3,	1.207535E-9
1.553972E+3,	1.138418E-9
1.553976E+3,	1.053546E-9
1.553980E+3,	908.282985E-12
1.553984E+3,	806.493452E-12
1.553988E+3,	727.827399E-12
1.553992E+3,	583.137642E-12
1.553996E+3,	506.980964E-12
1.554000E+3,	415.727984E-12
1.554004E+3,	352.612501E-12
1.554008E+3,	302.908797E-12
1.554012E+3,	267.285030E-12
1.554016E+3,	259.131495E-12
1.554020E+3,	245.022509E-12
1.554024E+3,	260.679700E-12
1.554028E+3,	305.039638E-12
1.554032E+3,	298.793247E-12
1.554036E+3,	340.942348E-12
1.554040E+3,	373.251406E-12
1.554044E+3,	437.808467E-12
1.554048E+3,	489.207044E-12
1.554052E+3,	530.364822E-12
1.554056E+3,	562.688898E-12
1.554060E+3,	578.676762E-12
1.554064E+3,	576.398411E-12
1.554068E+3,	581.756201E-12
1.554072E+3,	583.156607E-12
1.554076E+3,	556.523135E-12
1.554080E+3,	525.303563E-12
1.554084E+3,	493.677497E-12
1.554088E+3,	447.092345E-12
1.554092E+3,	387.321209E-12
1.554096E+3,	343.380291E-12
1.554100E+3,	304.456884E-12
1.554104E+3,	273.548801E-12
1.554108E+3,	227.243589E-12
1.554112E+3,	205.692780E-12
1.554116E+3,	166.435631E-12
1.554120E+3,	146.758986E-12
1.554124E+3,	123.271875E-12
1.554128E+3,	95.082562E-12
1.554132E+3,	104.171092E-12
1.554136E+3,	117.790418E-12
1.554140E+3,	115.058788E-12
1.554144E+3,	141.786514E-12
1.554148E+3,	146.126770E-12
1.554152E+3,	190.826414E-12
1.554156E+3,	184.725257E-12
1.554160E+3,	208.169952E-12
1.554164E+3,	214.581310E-12
1.554168E+3,	233.483971E-12
1.554172E+3,	256.055545E-12
1.554176E+3,	242.131566E-12
1.554180E+3,	239.927034E-12
1.554184E+3,	242.486965E-12
1.554188E+3,	255.359282E-12
1.554192E+3,	247.474574E-12
1.554196E+3,	209.963998E-12
1.554200E+3,	213.782027E-12
1.554204E+3,	195.461781E-12
1.554208E+3,	154.822885E-12
1.554212E+3,	152.011007E-12
1.554216E+3,	124.452589E-12
1.554220E+3,	98.464300E-12
1.554224E+3,	93.289245E-12
1.554228E+3,	77.398066E-12
1.554232E+3,	65.009017E-12
1.554236E+3,	77.497599E-12
1.554240E+3,	63.316397E-12
1.554244E+3,	48.514944E-12
1.554248E+3,	49.076494E-12
1.554252E+3,	49.414306E-12
1.554256E+3,	68.866080E-12
1.554260E+3,	60.831426E-12
1.554264E+3,	56.138227E-12
1.554268E+3,	72.596817E-12
1.554272E+3,	69.460033E-12
1.554276E+3,	96.638586E-12
1.554280E+3,	124.932032E-12
1.554284E+3,	75.528264E-12
1.554288E+3,	88.802320E-12
1.554292E+3,	97.119511E-12
1.554296E+3,	101.668932E-12
1.554300E+3,	112.658539E-12
1.554304E+3,	99.885705E-12
1.554308E+3,	95.009651E-12
1.554312E+3,	101.434431E-12
1.554316E+3,	110.734660E-12
1.554320E+3,	96.803157E-12
1.554324E+3,	71.468821E-12
1.554328E+3,	67.482818E-12
1.554332E+3,	66.669478E-12
1.554336E+3,	33.857330E-12
1.554340E+3,	44.580322E-12
1.554344E+3,	25.456534E-12
1.554348E+3,	8.918621E-12
1.554352E+3,	17.421723E-12
1.554356E+3,	40.573947E-12
1.554360E+3,	31.209095E-12
1.554364E+3,	14.418484E-12
1.554368E+3,	31.990280E-12
1.554372E+3,	42.053197E-12
1.554376E+3,	13.006886E-12
1.554380E+3,	29.296002E-12
1.554384E+3,	33.406254E-12
1.554388E+3,	31.753595E-12
1.554392E+3,	40.616728E-12
1.554396E+3,	26.553215E-12
1.554400E+3,	22.883518E-12
1.554404E+3,	49.361086E-12
1.554408E+3,	47.100438E-12
1.554412E+3,	33.910085E-12
1.554416E+3,	40.062665E-12
1.554420E+3,	42.766886E-12
1.554424E+3,	42.808930E-12
1.554428E+3,	64.441854E-12
1.554432E+3,	40.205454E-12
1.554436E+3,	38.385062E-12
1.554440E+3,	32.784377E-12
1.554444E+3,	27.785757E-12
1.554448E+3,	18.433825E-12
1.554452E+3,	19.609570E-12
1.554456E+3,	0.000000E+0
1.554460E+3,	11.247565E-12
1.554464E+3,	16.068013E-12
1.554468E+3,	16.112197E-12
1.554472E+3,	3.090673E-12
1.554476E+3,	13.647815E-12
1.554480E+3,	6.415473E-12
1.554484E+3,	4.165756E-12
1.554488E+3,	0.000000E+0
1.554492E+3,	13.554881E-12
1.554496E+3,	1.679190E-12
1.554500E+3,	29.169515E-12
