YOKOGAWA AQ6370D - S/N: 91S206859
#Date: 01/06/2023 Time: 14:37:33,	
A_WL(nm),	A_I(mW)
1.557650E+3,	21.292062E-12
1.557654E+3,	12.968586E-12
1.557658E+3,	2.832616E-12
1.557662E+3,	0.000000E+0
1.557666E+3,	0.000000E+0
1.557670E+3,	4.570973E-12
1.557674E+3,	6.425412E-12
1.557678E+3,	4.870569E-12
1.557682E+3,	6.118984E-12
1.557686E+3,	0.000000E+0
1.557690E+3,	10.143124E-12
1.557694E+3,	0.000000E+0
1.557698E+3,	0.000000E+0
1.557702E+3,	24.365603E-12
1.557706E+3,	0.000000E+0
1.557710E+3,	0.000000E+0
1.557714E+3,	0.000000E+0
1.557718E+3,	0.000000E+0
1.557722E+3,	12.403492E-12
1.557726E+3,	1.269464E-12
1.557730E+3,	0.000000E+0
1.557734E+3,	0.000000E+0
1.557738E+3,	0.000000E+0
1.557742E+3,	15.681028E-12
1.557746E+3,	0.000000E+0
1.557750E+3,	0.000000E+0
1.557754E+3,	0.000000E+0
1.557758E+3,	0.000000E+0
1.557762E+3,	0.000000E+0
1.557766E+3,	11.368395E-12
1.557770E+3,	0.000000E+0
1.557774E+3,	10.107779E-12
1.557778E+3,	2.060324E-12
1.557782E+3,	0.000000E+0
1.557786E+3,	12.543193E-12
1.557790E+3,	2.156985E-12
1.557794E+3,	1.297162E-12
1.557798E+3,	0.000000E+0
1.557802E+3,	6.961374E-12
1.557806E+3,	0.000000E+0
1.557810E+3,	0.000000E+0
1.557814E+3,	1.786120E-12
1.557818E+3,	0.000000E+0
1.557822E+3,	65.662141E-15
1.557826E+3,	0.000000E+0
1.557830E+3,	0.000000E+0
1.557834E+3,	0.000000E+0
1.557838E+3,	0.000000E+0
1.557842E+3,	8.949568E-12
1.557846E+3,	1.647845E-12
1.557850E+3,	3.608553E-12
1.557854E+3,	0.000000E+0
1.557858E+3,	0.000000E+0
1.557862E+3,	367.199296E-15
1.557866E+3,	0.000000E+0
1.557870E+3,	0.000000E+0
1.557874E+3,	7.942921E-12
1.557878E+3,	9.316974E-12
1.557882E+3,	0.000000E+0
1.557886E+3,	16.569011E-12
1.557890E+3,	7.942923E-12
1.557894E+3,	0.000000E+0
1.557898E+3,	9.879999E-12
1.557902E+3,	254.128200E-15
1.557906E+3,	0.000000E+0
1.557910E+3,	1.933558E-12
1.557914E+3,	3.905113E-12
1.557918E+3,	1.057912E-12
1.557922E+3,	0.000000E+0
1.557926E+3,	3.952723E-12
1.557930E+3,	0.000000E+0
1.557934E+3,	9.959345E-12
1.557938E+3,	8.931433E-12
1.557942E+3,	0.000000E+0
1.557946E+3,	0.000000E+0
1.557950E+3,	0.000000E+0
1.557954E+3,	0.000000E+0
1.557958E+3,	11.337647E-12
1.557962E+3,	518.078720E-15
1.557966E+3,	3.408894E-12
1.557970E+3,	0.000000E+0
1.557974E+3,	7.699708E-12
1.557978E+3,	0.000000E+0
1.557982E+3,	0.000000E+0
1.557986E+3,	4.165852E-12
1.557990E+3,	0.000000E+0
1.557994E+3,	0.000000E+0
1.557998E+3,	0.000000E+0
1.558002E+3,	838.519214E-15
1.558006E+3,	0.000000E+0
1.558010E+3,	0.000000E+0
1.558014E+3,	0.000000E+0
1.558018E+3,	0.000000E+0
1.558022E+3,	0.000000E+0
1.558026E+3,	0.000000E+0
1.558030E+3,	10.246740E-12
1.558034E+3,	18.547540E-12
1.558038E+3,	17.219654E-12
1.558042E+3,	1.366618E-12
1.558046E+3,	0.000000E+0
1.558050E+3,	15.242986E-12
1.558054E+3,	16.128293E-12
1.558058E+3,	19.715867E-12
1.558062E+3,	3.643620E-12
1.558066E+3,	0.000000E+0
1.558070E+3,	12.021761E-12
1.558074E+3,	0.000000E+0
1.558078E+3,	5.241776E-12
1.558082E+3,	7.665539E-12
1.558086E+3,	10.858299E-12
1.558090E+3,	5.988880E-12
1.558094E+3,	3.002625E-12
1.558098E+3,	5.384948E-12
1.558102E+3,	0.000000E+0
1.558106E+3,	0.000000E+0
1.558110E+3,	0.000000E+0
1.558114E+3,	22.078214E-12
1.558118E+3,	3.123169E-12
1.558122E+3,	0.000000E+0
1.558126E+3,	0.000000E+0
1.558130E+3,	2.327517E-12
1.558134E+3,	4.289933E-12
1.558138E+3,	12.800837E-12
1.558142E+3,	0.000000E+0
1.558146E+3,	0.000000E+0
1.558150E+3,	0.000000E+0
1.558154E+3,	0.000000E+0
1.558158E+3,	151.208786E-15
1.558162E+3,	0.000000E+0
1.558166E+3,	0.000000E+0
1.558170E+3,	11.864357E-12
1.558174E+3,	1.097468E-12
1.558178E+3,	0.000000E+0
1.558182E+3,	4.066449E-12
1.558186E+3,	0.000000E+0
1.558190E+3,	0.000000E+0
1.558194E+3,	0.000000E+0
1.558198E+3,	8.063800E-12
1.558202E+3,	0.000000E+0
1.558206E+3,	0.000000E+0
1.558210E+3,	8.671006E-12
1.558214E+3,	0.000000E+0
1.558218E+3,	0.000000E+0
1.558222E+3,	0.000000E+0
1.558226E+3,	11.114804E-12
1.558230E+3,	0.000000E+0
1.558234E+3,	0.000000E+0
1.558238E+3,	0.000000E+0
1.558242E+3,	9.157031E-15
1.558246E+3,	5.973808E-12
1.558250E+3,	0.000000E+0
1.558254E+3,	0.000000E+0
1.558258E+3,	0.000000E+0
1.558262E+3,	10.600743E-12
1.558266E+3,	3.991086E-12
1.558270E+3,	17.315007E-12
1.558274E+3,	0.000000E+0
1.558278E+3,	0.000000E+0
1.558282E+3,	2.727854E-12
1.558286E+3,	16.790343E-12
1.558290E+3,	8.977078E-12
1.558294E+3,	3.606623E-12
1.558298E+3,	0.000000E+0
1.558302E+3,	0.000000E+0
1.558306E+3,	0.000000E+0
1.558310E+3,	0.000000E+0
1.558314E+3,	0.000000E+0
1.558318E+3,	9.432364E-12
1.558322E+3,	10.323355E-12
1.558326E+3,	0.000000E+0
1.558330E+3,	20.932828E-12
1.558334E+3,	0.000000E+0
1.558338E+3,	0.000000E+0
1.558342E+3,	8.333254E-12
1.558346E+3,	4.542410E-12
1.558350E+3,	0.000000E+0
1.558354E+3,	0.000000E+0
1.558358E+3,	7.035695E-12
1.558362E+3,	0.000000E+0
1.558366E+3,	0.000000E+0
1.558370E+3,	6.695701E-12
1.558374E+3,	0.000000E+0
1.558378E+3,	0.000000E+0
1.558382E+3,	287.586679E-15
1.558386E+3,	13.933213E-12
1.558390E+3,	0.000000E+0
1.558394E+3,	0.000000E+0
1.558398E+3,	0.000000E+0
1.558402E+3,	12.780749E-12
1.558406E+3,	0.000000E+0
1.558410E+3,	0.000000E+0
1.558414E+3,	2.736311E-12
1.558418E+3,	1.850788E-12
1.558422E+3,	0.000000E+0
1.558426E+3,	9.495573E-12
1.558430E+3,	13.683886E-12
1.558434E+3,	0.000000E+0
1.558438E+3,	0.000000E+0
1.558442E+3,	0.000000E+0
1.558446E+3,	0.000000E+0
1.558450E+3,	0.000000E+0
1.558454E+3,	0.000000E+0
1.558458E+3,	0.000000E+0
1.558462E+3,	0.000000E+0
1.558466E+3,	5.131497E-12
1.558470E+3,	7.097261E-12
1.558474E+3,	4.078163E-12
1.558478E+3,	14.541497E-12
1.558482E+3,	3.861805E-12
1.558486E+3,	4.180858E-12
1.558490E+3,	11.022488E-12
1.558494E+3,	3.959599E-12
1.558498E+3,	9.565259E-12
1.558502E+3,	42.509697E-12
1.558506E+3,	1.899765E-12
1.558510E+3,	26.061539E-12
1.558514E+3,	14.226432E-12
1.558518E+3,	5.828217E-12
1.558522E+3,	16.666118E-12
1.558526E+3,	28.884081E-12
1.558530E+3,	44.904443E-12
1.558534E+3,	23.584866E-12
1.558538E+3,	19.373302E-12
1.558542E+3,	5.166524E-12
1.558546E+3,	8.266000E-12
1.558550E+3,	13.322013E-12
1.558554E+3,	12.098002E-12
1.558558E+3,	22.335250E-12
1.558562E+3,	18.327484E-12
1.558566E+3,	37.451531E-12
1.558570E+3,	56.781274E-12
1.558574E+3,	37.742157E-12
1.558578E+3,	54.218527E-12
1.558582E+3,	81.101384E-12
1.558586E+3,	105.676303E-12
1.558590E+3,	144.964358E-12
1.558594E+3,	164.068041E-12
1.558598E+3,	194.387945E-12
1.558602E+3,	206.918834E-12
1.558606E+3,	196.986210E-12
1.558610E+3,	217.768222E-12
1.558614E+3,	226.403445E-12
1.558618E+3,	202.707257E-12
1.558622E+3,	181.315045E-12
1.558626E+3,	166.161752E-12
1.558630E+3,	151.433507E-12
1.558634E+3,	147.823258E-12
1.558638E+3,	161.088888E-12
1.558642E+3,	180.022389E-12
1.558646E+3,	210.028918E-12
1.558650E+3,	267.571891E-12
1.558654E+3,	353.352246E-12
1.558658E+3,	457.783988E-12
1.558662E+3,	528.085789E-12
1.558666E+3,	668.753399E-12
1.558670E+3,	783.236654E-12
1.558674E+3,	852.487176E-12
1.558678E+3,	923.826525E-12
1.558682E+3,	985.194687E-12
1.558686E+3,	984.496328E-12
1.558690E+3,	919.642685E-12
1.558694E+3,	843.472705E-12
1.558698E+3,	788.935100E-12
1.558702E+3,	673.750107E-12
1.558706E+3,	608.338781E-12
1.558710E+3,	540.289692E-12
1.558714E+3,	540.679088E-12
1.558718E+3,	569.093081E-12
1.558722E+3,	699.473694E-12
1.558726E+3,	843.087251E-12
1.558730E+3,	1.056221E-9
1.558734E+3,	1.361437E-9
1.558738E+3,	1.670479E-9
1.558742E+3,	1.967733E-9
1.558746E+3,	2.311181E-9
1.558750E+3,	2.662966E-9
1.558754E+3,	2.883855E-9
1.558758E+3,	3.034289E-9
1.558762E+3,	3.140626E-9
1.558766E+3,	3.121975E-9
1.558770E+3,	3.050594E-9
1.558774E+3,	2.863255E-9
1.558778E+3,	2.615256E-9
1.558782E+3,	2.421978E-9
1.558786E+3,	2.125778E-9
1.558790E+3,	1.916878E-9
1.558794E+3,	1.820614E-9
1.558798E+3,	1.788744E-9
1.558802E+3,	1.899932E-9
1.558806E+3,	2.157510E-9
1.558810E+3,	2.464887E-9
1.558814E+3,	2.999470E-9
1.558818E+3,	3.584786E-9
1.558822E+3,	4.109137E-9
1.558826E+3,	4.760625E-9
1.558830E+3,	5.533944E-9
1.558834E+3,	6.112125E-9
1.558838E+3,	6.489029E-9
1.558842E+3,	6.820455E-9
1.558846E+3,	6.900725E-9
1.558850E+3,	6.825044E-9
1.558854E+3,	6.572443E-9
1.558858E+3,	6.108807E-9
1.558862E+3,	5.578251E-9
1.558866E+3,	5.144886E-9
1.558870E+3,	4.646531E-9
1.558874E+3,	4.305113E-9
1.558878E+3,	4.229502E-9
1.558882E+3,	4.416453E-9
1.558886E+3,	4.878828E-9
1.558890E+3,	5.503961E-9
1.558894E+3,	6.350916E-9
1.558898E+3,	7.577691E-9
1.558902E+3,	8.839051E-9
1.558906E+3,	9.907818E-9
1.558910E+3,	11.139015E-9
1.558914E+3,	12.017637E-9
1.558918E+3,	12.396297E-9
1.558922E+3,	12.479627E-9
1.558926E+3,	12.122530E-9
1.558930E+3,	11.406354E-9
1.558934E+3,	10.533702E-9
1.558938E+3,	9.144681E-9
1.558942E+3,	7.913584E-9
1.558946E+3,	7.062185E-9
1.558950E+3,	6.435308E-9
1.558954E+3,	6.113979E-9
1.558958E+3,	6.329814E-9
1.558962E+3,	7.037356E-9
1.558966E+3,	8.517344E-9
1.558970E+3,	10.202629E-9
1.558974E+3,	11.836950E-9
1.558978E+3,	13.985482E-9
1.558982E+3,	15.746875E-9
1.558986E+3,	16.905206E-9
1.558990E+3,	17.845128E-9
1.558994E+3,	18.205918E-9
1.558998E+3,	17.854426E-9
1.559002E+3,	17.074313E-9
1.559006E+3,	15.464335E-9
1.559010E+3,	13.577757E-9
1.559014E+3,	11.748602E-9
1.559018E+3,	9.474307E-9
1.559022E+3,	7.793200E-9
1.559026E+3,	6.817882E-9
1.559030E+3,	6.321311E-9
1.559034E+3,	6.509149E-9
1.559038E+3,	7.360997E-9
1.559042E+3,	8.632185E-9
1.559046E+3,	10.823229E-9
1.559050E+3,	13.036317E-9
1.559054E+3,	14.742771E-9
1.559058E+3,	16.727472E-9
1.559062E+3,	18.253384E-9
1.559066E+3,	19.115639E-9
1.559070E+3,	19.550160E-9
1.559074E+3,	19.287353E-9
1.559078E+3,	18.410504E-9
1.559082E+3,	17.246487E-9
1.559086E+3,	15.231191E-9
1.559090E+3,	13.116156E-9
1.559094E+3,	11.242872E-9
1.559098E+3,	8.961685E-9
1.559102E+3,	7.290028E-9
1.559106E+3,	6.349522E-9
1.559110E+3,	5.771622E-9
1.559114E+3,	5.754989E-9
1.559118E+3,	6.355489E-9
1.559122E+3,	7.313498E-9
1.559126E+3,	9.088442E-9
1.559130E+3,	10.940267E-9
1.559134E+3,	12.531377E-9
1.559138E+3,	14.605758E-9
1.559142E+3,	16.265412E-9
1.559146E+3,	17.383422E-9
1.559150E+3,	18.279973E-9
1.559154E+3,	18.790846E-9
1.559158E+3,	18.571115E-9
1.559162E+3,	17.955698E-9
1.559166E+3,	16.650442E-9
1.559170E+3,	15.061290E-9
1.559174E+3,	13.478001E-9
1.559178E+3,	11.256563E-9
1.559182E+3,	9.320124E-9
1.559186E+3,	8.058792E-9
1.559190E+3,	6.931496E-9
1.559194E+3,	6.157892E-9
1.559198E+3,	5.997115E-9
1.559202E+3,	6.403755E-9
1.559206E+3,	7.629574E-9
1.559210E+3,	9.247552E-9
1.559214E+3,	10.811571E-9
1.559218E+3,	12.957280E-9
1.559222E+3,	14.979355E-9
1.559226E+3,	16.369221E-9
1.559230E+3,	17.661450E-9
1.559234E+3,	18.504946E-9
1.559238E+3,	18.573893E-9
1.559242E+3,	18.112864E-9
1.559246E+3,	16.870725E-9
1.559250E+3,	15.274890E-9
1.559254E+3,	13.689916E-9
1.559258E+3,	11.428577E-9
1.559262E+3,	9.484476E-9
1.559266E+3,	8.300853E-9
1.559270E+3,	7.441919E-9
1.559274E+3,	7.125651E-9
1.559278E+3,	7.559631E-9
1.559282E+3,	8.547524E-9
1.559286E+3,	10.502816E-9
1.559290E+3,	12.553636E-9
1.559294E+3,	14.351938E-9
1.559298E+3,	16.693307E-9
1.559302E+3,	18.499915E-9
1.559306E+3,	19.524728E-9
1.559310E+3,	20.129642E-9
1.559314E+3,	19.946372E-9
1.559318E+3,	19.048862E-9
1.559322E+3,	17.812418E-9
1.559326E+3,	15.698280E-9
1.559330E+3,	13.472180E-9
1.559334E+3,	11.669494E-9
1.559338E+3,	9.642262E-9
1.559342E+3,	8.337854E-9
1.559346E+3,	7.845075E-9
1.559350E+3,	7.886527E-9
1.559354E+3,	8.819096E-9
1.559358E+3,	10.331543E-9
1.559362E+3,	12.061908E-9
1.559366E+3,	14.602245E-9
1.559370E+3,	16.835022E-9
1.559374E+3,	18.526550E-9
1.559378E+3,	20.304118E-9
1.559382E+3,	21.324839E-9
1.559386E+3,	21.566155E-9
1.559390E+3,	21.257065E-9
1.559394E+3,	20.058254E-9
1.559398E+3,	18.306121E-9
1.559402E+3,	16.579173E-9
1.559406E+3,	13.986192E-9
1.559410E+3,	11.659049E-9
1.559414E+3,	10.016148E-9
1.559418E+3,	8.302384E-9
1.559422E+3,	7.314753E-9
1.559426E+3,	7.088397E-9
1.559430E+3,	7.381550E-9
1.559434E+3,	8.377884E-9
1.559438E+3,	9.807982E-9
1.559442E+3,	11.298716E-9
1.559446E+3,	13.576126E-9
1.559450E+3,	15.566642E-9
1.559454E+3,	17.036551E-9
1.559458E+3,	18.619086E-9
1.559462E+3,	19.691249E-9
1.559466E+3,	20.090742E-9
1.559470E+3,	20.100645E-9
1.559474E+3,	19.422937E-9
1.559478E+3,	18.223448E-9
1.559482E+3,	16.924699E-9
1.559486E+3,	14.827952E-9
1.559490E+3,	12.771012E-9
1.559494E+3,	11.097389E-9
1.559498E+3,	9.059897E-9
1.559502E+3,	7.576615E-9
1.559506E+3,	6.806189E-9
1.559510E+3,	6.494456E-9
1.559514E+3,	6.823820E-9
1.559518E+3,	7.689145E-9
1.559522E+3,	8.818829E-9
1.559526E+3,	10.876397E-9
1.559530E+3,	13.086414E-9
1.559534E+3,	14.843766E-9
1.559538E+3,	16.898442E-9
1.559542E+3,	18.441048E-9
1.559546E+3,	19.371152E-9
1.559550E+3,	19.887842E-9
1.559554E+3,	19.653121E-9
1.559558E+3,	18.727180E-9
1.559562E+3,	17.498573E-9
1.559566E+3,	15.453945E-9
1.559570E+3,	13.292652E-9
1.559574E+3,	11.400269E-9
1.559578E+3,	9.158815E-9
1.559582E+3,	7.521135E-9
1.559586E+3,	6.773140E-9
1.559590E+3,	6.524291E-9
1.559594E+3,	7.084350E-9
1.559598E+3,	8.328812E-9
1.559602E+3,	9.753207E-9
1.559606E+3,	12.077489E-9
1.559610E+3,	14.413666E-9
1.559614E+3,	16.121203E-9
1.559618E+3,	17.902236E-9
1.559622E+3,	18.975659E-9
1.559626E+3,	19.280194E-9
1.559630E+3,	19.070696E-9
1.559634E+3,	17.958885E-9
1.559638E+3,	16.284963E-9
1.559642E+3,	14.644769E-9
1.559646E+3,	12.234665E-9
1.559650E+3,	10.112035E-9
1.559654E+3,	8.591247E-9
1.559658E+3,	7.223925E-9
1.559662E+3,	6.752735E-9
1.559666E+3,	6.969785E-9
1.559670E+3,	7.800209E-9
1.559674E+3,	9.494756E-9
1.559678E+3,	11.503509E-9
1.559682E+3,	13.345781E-9
1.559686E+3,	15.872431E-9
1.559690E+3,	17.821627E-9
1.559694E+3,	18.991933E-9
1.559698E+3,	19.778117E-9
1.559702E+3,	19.772072E-9
1.559706E+3,	19.209272E-9
1.559710E+3,	18.003408E-9
1.559714E+3,	16.028425E-9
1.559718E+3,	13.874882E-9
1.559722E+3,	11.969890E-9
1.559726E+3,	9.743716E-9
1.559730E+3,	8.085924E-9
1.559734E+3,	7.227551E-9
1.559738E+3,	6.743727E-9
1.559742E+3,	7.087020E-9
1.559746E+3,	7.893892E-9
1.559750E+3,	9.224255E-9
1.559754E+3,	11.177453E-9
1.559758E+3,	13.132144E-9
1.559762E+3,	14.809068E-9
1.559766E+3,	16.780215E-9
1.559770E+3,	18.253471E-9
1.559774E+3,	18.993520E-9
1.559778E+3,	19.313296E-9
1.559782E+3,	19.066784E-9
1.559786E+3,	18.381790E-9
1.559790E+3,	17.126975E-9
1.559794E+3,	15.178652E-9
1.559798E+3,	13.230051E-9
1.559802E+3,	11.587308E-9
1.559806E+3,	9.568910E-9
1.559810E+3,	8.056858E-9
1.559814E+3,	7.117920E-9
1.559818E+3,	6.507936E-9
1.559822E+3,	6.549822E-9
1.559826E+3,	7.090064E-9
1.559830E+3,	8.139312E-9
1.559834E+3,	9.859706E-9
1.559838E+3,	11.723655E-9
1.559842E+3,	13.429173E-9
1.559846E+3,	15.716009E-9
1.559850E+3,	17.604656E-9
1.559854E+3,	18.823350E-9
1.559858E+3,	19.901746E-9
1.559862E+3,	20.311070E-9
1.559866E+3,	20.179946E-9
1.559870E+3,	19.576091E-9
1.559874E+3,	18.126318E-9
1.559878E+3,	16.383725E-9
1.559882E+3,	14.638643E-9
1.559886E+3,	12.207247E-9
1.559890E+3,	10.129024E-9
1.559894E+3,	8.669702E-9
1.559898E+3,	7.272501E-9
1.559902E+3,	6.657803E-9
1.559906E+3,	6.771869E-9
1.559910E+3,	7.452196E-9
1.559914E+3,	8.997616E-9
1.559918E+3,	10.884525E-9
1.559922E+3,	12.695529E-9
1.559926E+3,	15.242837E-9
1.559930E+3,	17.430141E-9
1.559934E+3,	18.858573E-9
1.559938E+3,	20.109277E-9
1.559942E+3,	20.634907E-9
1.559946E+3,	20.484956E-9
1.559950E+3,	19.761214E-9
1.559954E+3,	18.082248E-9
1.559958E+3,	16.063619E-9
1.559962E+3,	14.248454E-9
1.559966E+3,	11.734931E-9
1.559970E+3,	9.673931E-9
1.559974E+3,	8.258474E-9
1.559978E+3,	7.137104E-9
1.559982E+3,	6.879423E-9
1.559986E+3,	7.323838E-9
1.559990E+3,	8.398678E-9
1.559994E+3,	10.237638E-9
1.559998E+3,	12.170838E-9
1.560002E+3,	13.910956E-9
1.560006E+3,	16.080462E-9
1.560010E+3,	17.694150E-9
1.560014E+3,	18.527450E-9
1.560018E+3,	18.878681E-9
1.560022E+3,	18.551913E-9
1.560026E+3,	17.789230E-9
1.560030E+3,	16.510212E-9
1.560034E+3,	14.419388E-9
1.560038E+3,	12.287206E-9
1.560042E+3,	10.505138E-9
1.560046E+3,	8.521899E-9
1.560050E+3,	7.212931E-9
1.560054E+3,	6.575646E-9
1.560058E+3,	6.404555E-9
1.560062E+3,	6.974316E-9
1.560066E+3,	7.963960E-9
1.560070E+3,	9.725501E-9
1.560074E+3,	11.582630E-9
1.560078E+3,	13.154628E-9
1.560082E+3,	14.818077E-9
1.560086E+3,	16.480117E-9
1.560090E+3,	17.423512E-9
1.560094E+3,	17.683935E-9
1.560098E+3,	17.372948E-9
1.560102E+3,	16.558198E-9
1.560106E+3,	15.528780E-9
1.560110E+3,	13.723024E-9
1.560114E+3,	11.863292E-9
1.560118E+3,	10.303657E-9
1.560122E+3,	8.467396E-9
1.560126E+3,	7.103213E-9
1.560130E+3,	6.361679E-9
1.560134E+3,	5.885541E-9
1.560138E+3,	6.064556E-9
1.560142E+3,	6.700814E-9
1.560146E+3,	7.792291E-9
1.560150E+3,	9.528272E-9
1.560154E+3,	11.311740E-9
1.560158E+3,	12.884149E-9
1.560162E+3,	14.826228E-9
1.560166E+3,	16.415336E-9
1.560170E+3,	17.378180E-9
1.560174E+3,	18.052115E-9
1.560178E+3,	18.067790E-9
1.560182E+3,	17.653637E-9
1.560186E+3,	16.569803E-9
1.560190E+3,	15.091422E-9
1.560194E+3,	13.541738E-9
1.560198E+3,	11.649403E-9
1.560202E+3,	9.537619E-9
1.560206E+3,	7.882603E-9
1.560210E+3,	6.850103E-9
1.560214E+3,	6.003497E-9
1.560218E+3,	5.803442E-9
1.560222E+3,	6.234784E-9
1.560226E+3,	7.540020E-9
1.560230E+3,	9.254175E-9
1.560234E+3,	10.900581E-9
1.560238E+3,	13.265542E-9
1.560242E+3,	15.449721E-9
1.560246E+3,	17.142909E-9
1.560250E+3,	18.659085E-9
1.560254E+3,	19.773896E-9
1.560258E+3,	20.119592E-9
1.560262E+3,	19.787931E-9
1.560266E+3,	18.677395E-9
1.560270E+3,	17.016195E-9
1.560274E+3,	15.274395E-9
1.560278E+3,	12.689716E-9
1.560282E+3,	10.393912E-9
1.560286E+3,	8.795130E-9
1.560290E+3,	7.289306E-9
1.560294E+3,	6.550282E-9
1.560298E+3,	6.542947E-9
1.560302E+3,	7.181850E-9
1.560306E+3,	8.768803E-9
1.560310E+3,	10.639468E-9
1.560314E+3,	12.428410E-9
1.560318E+3,	14.676818E-9
1.560322E+3,	16.602305E-9
1.560326E+3,	17.879363E-9
1.560330E+3,	18.815543E-9
1.560334E+3,	18.931827E-9
1.560338E+3,	18.475564E-9
1.560342E+3,	17.183378E-9
1.560346E+3,	15.527887E-9
1.560350E+3,	13.896273E-9
1.560354E+3,	11.857177E-9
1.560358E+3,	9.570648E-9
1.560362E+3,	7.837505E-9
1.560366E+3,	6.912404E-9
1.560370E+3,	6.344436E-9
1.560374E+3,	6.478891E-9
1.560378E+3,	7.147368E-9
1.560382E+3,	8.607289E-9
1.560386E+3,	10.403412E-9
1.560390E+3,	11.897415E-9
1.560394E+3,	13.710675E-9
1.560398E+3,	15.207423E-9
1.560402E+3,	16.062954E-9
1.560406E+3,	16.523209E-9
1.560410E+3,	16.409037E-9
1.560414E+3,	15.726742E-9
1.560418E+3,	14.808138E-9
1.560422E+3,	13.206495E-9
1.560426E+3,	11.552767E-9
1.560430E+3,	10.157211E-9
1.560434E+3,	8.455279E-9
1.560438E+3,	7.045664E-9
1.560442E+3,	6.207476E-9
1.560446E+3,	5.657446E-9
1.560450E+3,	5.719845E-9
1.560454E+3,	6.147386E-9
1.560458E+3,	7.013899E-9
1.560462E+3,	8.454361E-9
1.560466E+3,	10.110509E-9
1.560470E+3,	11.541108E-9
1.560474E+3,	13.223752E-9
1.560478E+3,	14.525461E-9
1.560482E+3,	15.330708E-9
1.560486E+3,	15.914475E-9
1.560490E+3,	15.967522E-9
1.560494E+3,	15.572655E-9
1.560498E+3,	14.586073E-9
1.560502E+3,	13.372074E-9
1.560506E+3,	12.240235E-9
1.560510E+3,	10.750840E-9
1.560514E+3,	8.825526E-9
1.560518E+3,	7.243255E-9
1.560522E+3,	6.219788E-9
1.560526E+3,	5.434692E-9
1.560530E+3,	5.200360E-9
1.560534E+3,	5.427832E-9
1.560538E+3,	6.453900E-9
1.560542E+3,	7.915560E-9
1.560546E+3,	9.426754E-9
1.560550E+3,	11.619334E-9
1.560554E+3,	13.607430E-9
1.560558E+3,	15.145720E-9
1.560562E+3,	16.592520E-9
1.560566E+3,	17.799730E-9
1.560570E+3,	18.260835E-9
1.560574E+3,	18.078837E-9
1.560578E+3,	17.125253E-9
1.560582E+3,	15.685514E-9
1.560586E+3,	14.209869E-9
1.560590E+3,	12.029627E-9
1.560594E+3,	10.003616E-9
1.560598E+3,	8.482441E-9
1.560602E+3,	6.871378E-9
1.560606E+3,	6.038657E-9
1.560610E+3,	5.866852E-9
1.560614E+3,	6.157893E-9
1.560618E+3,	7.337363E-9
1.560622E+3,	8.973948E-9
1.560626E+3,	10.615500E-9
1.560630E+3,	12.937715E-9
1.560634E+3,	14.929608E-9
1.560638E+3,	16.323816E-9
1.560642E+3,	17.741120E-9
1.560646E+3,	18.378879E-9
1.560650E+3,	18.307626E-9
1.560654E+3,	17.402100E-9
1.560658E+3,	16.054645E-9
1.560662E+3,	14.538265E-9
1.560666E+3,	12.743371E-9
1.560670E+3,	10.511003E-9
1.560674E+3,	8.597737E-9
1.560678E+3,	7.308027E-9
1.560682E+3,	6.202617E-9
1.560686E+3,	5.872440E-9
1.560690E+3,	6.114691E-9
1.560694E+3,	7.089193E-9
1.560698E+3,	8.500631E-9
1.560702E+3,	9.999012E-9
1.560706E+3,	12.170704E-9
1.560710E+3,	13.986744E-9
1.560714E+3,	15.144351E-9
1.560718E+3,	16.096659E-9
1.560722E+3,	16.623131E-9
1.560726E+3,	16.467168E-9
1.560730E+3,	15.907310E-9
1.560734E+3,	14.562987E-9
1.560738E+3,	13.026861E-9
1.560742E+3,	11.655768E-9
1.560746E+3,	9.893021E-9
1.560750E+3,	8.299411E-9
1.560754E+3,	7.170835E-9
1.560758E+3,	6.202549E-9
1.560762E+3,	5.791114E-9
1.560766E+3,	5.811631E-9
1.560770E+3,	6.286153E-9
1.560774E+3,	7.310496E-9
1.560778E+3,	8.612901E-9
1.560782E+3,	9.793201E-9
1.560786E+3,	11.351917E-9
1.560790E+3,	12.634136E-9
1.560794E+3,	13.415924E-9
1.560798E+3,	14.132996E-9
1.560802E+3,	14.410142E-9
1.560806E+3,	14.272070E-9
1.560810E+3,	13.653814E-9
1.560814E+3,	12.761815E-9
1.560818E+3,	11.781027E-9
1.560822E+3,	10.602753E-9
1.560826E+3,	9.210441E-9
1.560830E+3,	7.984101E-9
1.560834E+3,	7.045661E-9
1.560838E+3,	6.102321E-9
1.560842E+3,	5.609938E-9
1.560846E+3,	5.581736E-9
1.560850E+3,	6.000265E-9
1.560854E+3,	6.746705E-9
1.560858E+3,	7.673692E-9
1.560862E+3,	9.407389E-9
1.560866E+3,	11.188778E-9
1.560870E+3,	12.605291E-9
1.560874E+3,	14.034607E-9
1.560878E+3,	15.431681E-9
1.560882E+3,	16.332191E-9
1.560886E+3,	16.640324E-9
1.560890E+3,	16.437362E-9
1.560894E+3,	15.638595E-9
1.560898E+3,	14.546474E-9
1.560902E+3,	12.798388E-9
1.560906E+3,	10.988279E-9
1.560910E+3,	9.538983E-9
1.560914E+3,	7.767887E-9
1.560918E+3,	6.373226E-9
1.560922E+3,	5.679547E-9
1.560926E+3,	5.422180E-9
1.560930E+3,	5.839777E-9
1.560934E+3,	6.772877E-9
1.560938E+3,	7.897104E-9
1.560942E+3,	10.055853E-9
1.560946E+3,	12.295842E-9
1.560950E+3,	14.052179E-9
1.560954E+3,	16.137322E-9
1.560958E+3,	17.553583E-9
1.560962E+3,	18.283036E-9
1.560966E+3,	18.488410E-9
1.560970E+3,	17.874925E-9
1.560974E+3,	16.829552E-9
1.560978E+3,	15.329466E-9
1.560982E+3,	13.188537E-9
1.560986E+3,	11.057420E-9
1.560990E+3,	9.421150E-9
1.560994E+3,	7.591865E-9
1.560998E+3,	6.361012E-9
1.561002E+3,	5.865937E-9
1.561006E+3,	6.007022E-9
1.561010E+3,	6.788314E-9
1.561014E+3,	7.807178E-9
1.561018E+3,	9.594001E-9
1.561022E+3,	11.497939E-9
1.561026E+3,	13.117958E-9
1.561030E+3,	14.982503E-9
1.561034E+3,	16.230540E-9
1.561038E+3,	16.713340E-9
1.561042E+3,	16.766229E-9
1.561046E+3,	16.166383E-9
1.561050E+3,	15.207928E-9
1.561054E+3,	13.747549E-9
1.561058E+3,	11.755922E-9
1.561062E+3,	9.940330E-9
1.561066E+3,	8.515277E-9
1.561070E+3,	6.801003E-9
1.561074E+3,	5.671510E-9
1.561078E+3,	5.124336E-9
1.561082E+3,	5.089885E-9
1.561086E+3,	5.623815E-9
1.561090E+3,	6.446309E-9
1.561094E+3,	7.860146E-9
1.561098E+3,	9.357612E-9
1.561102E+3,	10.625891E-9
1.561106E+3,	12.221278E-9
1.561110E+3,	13.315142E-9
1.561114E+3,	13.822950E-9
1.561118E+3,	14.028490E-9
1.561122E+3,	13.761795E-9
1.561126E+3,	13.205551E-9
1.561130E+3,	12.281554E-9
1.561134E+3,	10.908556E-9
1.561138E+3,	9.495910E-9
1.561142E+3,	8.439345E-9
1.561146E+3,	7.113670E-9
1.561150E+3,	6.109071E-9
1.561154E+3,	5.477042E-9
1.561158E+3,	5.043155E-9
1.561162E+3,	5.091876E-9
1.561166E+3,	5.469218E-9
1.561170E+3,	6.344072E-9
1.561174E+3,	7.456256E-9
1.561178E+3,	8.577114E-9
1.561182E+3,	10.195275E-9
1.561186E+3,	11.621435E-9
1.561190E+3,	12.614927E-9
1.561194E+3,	13.575764E-9
1.561198E+3,	14.102955E-9
1.561202E+3,	14.202960E-9
1.561206E+3,	13.927948E-9
1.561210E+3,	12.997237E-9
1.561214E+3,	11.820129E-9
1.561218E+3,	10.679489E-9
1.561222E+3,	9.140995E-9
1.561226E+3,	7.799130E-9
1.561230E+3,	6.793263E-9
1.561234E+3,	5.811752E-9
1.561238E+3,	5.399086E-9
1.561242E+3,	5.497053E-9
1.561246E+3,	6.194853E-9
1.561250E+3,	7.358610E-9
1.561254E+3,	8.668524E-9
1.561258E+3,	10.779217E-9
1.561262E+3,	12.880043E-9
1.561266E+3,	14.568469E-9
1.561270E+3,	16.405653E-9
1.561274E+3,	17.571589E-9
1.561278E+3,	17.984153E-9
1.561282E+3,	17.937685E-9
1.561286E+3,	17.119927E-9
1.561290E+3,	15.716481E-9
1.561294E+3,	14.071564E-9
1.561298E+3,	11.813837E-9
1.561302E+3,	9.803134E-9
1.561306E+3,	8.326690E-9
1.561310E+3,	6.787779E-9
1.561314E+3,	5.883202E-9
1.561318E+3,	5.668789E-9
1.561322E+3,	6.168011E-9
1.561326E+3,	7.238210E-9
1.561330E+3,	8.413889E-9
1.561334E+3,	10.289265E-9
1.561338E+3,	12.217929E-9
1.561342E+3,	13.797019E-9
1.561346E+3,	15.517785E-9
1.561350E+3,	16.527568E-9
1.561354E+3,	16.860483E-9
1.561358E+3,	16.733045E-9
1.561362E+3,	15.813342E-9
1.561366E+3,	14.423709E-9
1.561370E+3,	12.952011E-9
1.561374E+3,	10.767223E-9
1.561378E+3,	8.773931E-9
1.561382E+3,	7.277036E-9
1.561386E+3,	5.784229E-9
1.561390E+3,	4.834817E-9
1.561394E+3,	4.454344E-9
1.561398E+3,	4.510533E-9
1.561402E+3,	5.021243E-9
1.561406E+3,	5.791806E-9
1.561410E+3,	7.028926E-9
1.561414E+3,	8.298949E-9
1.561418E+3,	9.241551E-9
1.561422E+3,	10.312799E-9
1.561426E+3,	11.038378E-9
1.561430E+3,	11.318996E-9
1.561434E+3,	11.276908E-9
1.561438E+3,	10.784191E-9
1.561442E+3,	10.016428E-9
1.561446E+3,	9.251693E-9
1.561450E+3,	7.936772E-9
1.561454E+3,	6.634522E-9
1.561458E+3,	5.696618E-9
1.561462E+3,	4.593610E-9
1.561466E+3,	3.788797E-9
1.561470E+3,	3.340730E-9
1.561474E+3,	3.044877E-9
1.561478E+3,	3.090166E-9
1.561482E+3,	3.337091E-9
1.561486E+3,	3.905831E-9
1.561490E+3,	4.554690E-9
1.561494E+3,	5.129191E-9
1.561498E+3,	5.916465E-9
1.561502E+3,	6.636539E-9
1.561506E+3,	7.143867E-9
1.561510E+3,	7.523902E-9
1.561514E+3,	7.710076E-9
1.561518E+3,	7.637590E-9
1.561522E+3,	7.411631E-9
1.561526E+3,	6.829572E-9
1.561530E+3,	6.142104E-9
1.561534E+3,	5.438304E-9
1.561538E+3,	4.533528E-9
1.561542E+3,	3.765560E-9
1.561546E+3,	3.217539E-9
1.561550E+3,	2.628559E-9
1.561554E+3,	2.264587E-9
1.561558E+3,	2.160554E-9
1.561562E+3,	2.256826E-9
1.561566E+3,	2.597870E-9
1.561570E+3,	2.994033E-9
1.561574E+3,	3.660027E-9
1.561578E+3,	4.346838E-9
1.561582E+3,	4.888071E-9
1.561586E+3,	5.383203E-9
1.561590E+3,	5.841001E-9
1.561594E+3,	6.042793E-9
1.561598E+3,	6.007276E-9
1.561602E+3,	5.718384E-9
1.561606E+3,	5.229301E-9
1.561610E+3,	4.708536E-9
1.561614E+3,	3.895610E-9
1.561618E+3,	3.175313E-9
1.561622E+3,	2.646949E-9
1.561626E+3,	2.097547E-9
1.561630E+3,	1.760485E-9
1.561634E+3,	1.588630E-9
1.561638E+3,	1.583979E-9
1.561642E+3,	1.758952E-9
1.561646E+3,	2.015226E-9
1.561650E+3,	2.411372E-9
1.561654E+3,	2.812278E-9
1.561658E+3,	3.130797E-9
1.561662E+3,	3.389977E-9
1.561666E+3,	3.579638E-9
1.561670E+3,	3.619000E-9
1.561674E+3,	3.534245E-9
1.561678E+3,	3.280305E-9
1.561682E+3,	2.961031E-9
1.561686E+3,	2.631512E-9
1.561690E+3,	2.114193E-9
1.561694E+3,	1.671798E-9
1.561698E+3,	1.341754E-9
1.561702E+3,	992.102405E-12
1.561706E+3,	791.041258E-12
1.561710E+3,	706.836330E-12
1.561714E+3,	653.762943E-12
1.561718E+3,	652.496035E-12
1.561722E+3,	742.293259E-12
1.561726E+3,	854.873870E-12
1.561730E+3,	942.052925E-12
1.561734E+3,	1.009027E-9
1.561738E+3,	1.111401E-9
1.561742E+3,	1.129741E-9
1.561746E+3,	1.145254E-9
1.561750E+3,	1.107859E-9
1.561754E+3,	1.018852E-9
1.561758E+3,	889.023808E-12
1.561762E+3,	798.098658E-12
1.561766E+3,	637.272697E-12
1.561770E+3,	534.385575E-12
1.561774E+3,	411.895637E-12
1.561778E+3,	324.967661E-12
1.561782E+3,	263.697085E-12
1.561786E+3,	207.727027E-12
1.561790E+3,	193.791967E-12
1.561794E+3,	176.716201E-12
1.561798E+3,	157.144342E-12
1.561802E+3,	177.700701E-12
1.561806E+3,	193.913386E-12
1.561810E+3,	197.993314E-12
1.561814E+3,	197.091831E-12
1.561818E+3,	180.266169E-12
1.561822E+3,	180.591116E-12
1.561826E+3,	180.054275E-12
1.561830E+3,	174.907632E-12
1.561834E+3,	196.103107E-12
1.561838E+3,	138.977252E-12
1.561842E+3,	142.023941E-12
1.561846E+3,	95.797419E-12
1.561850E+3,	89.510543E-12
1.561854E+3,	71.683288E-12
1.561858E+3,	52.823207E-12
1.561862E+3,	70.502631E-12
1.561866E+3,	29.060664E-12
1.561870E+3,	27.771463E-12
1.561874E+3,	47.367613E-12
1.561878E+3,	17.444575E-12
1.561882E+3,	10.338880E-12
1.561886E+3,	20.499495E-12
1.561890E+3,	28.140874E-12
1.561894E+3,	25.894106E-12
1.561898E+3,	26.163314E-12
1.561902E+3,	19.253267E-12
1.561906E+3,	23.190911E-12
1.561910E+3,	9.804751E-12
1.561914E+3,	16.253479E-12
1.561918E+3,	37.236363E-12
1.561922E+3,	20.120390E-12
1.561926E+3,	0.000000E+0
1.561930E+3,	36.277039E-12
1.561934E+3,	2.756950E-12
1.561938E+3,	30.223651E-12
1.561942E+3,	11.300861E-12
1.561946E+3,	196.377033E-15
1.561950E+3,	13.353063E-12
1.561954E+3,	23.364785E-12
1.561958E+3,	5.855429E-12
1.561962E+3,	8.096353E-12
1.561966E+3,	4.775704E-12
1.561970E+3,	1.294038E-12
1.561974E+3,	10.171834E-12
1.561978E+3,	8.836394E-12
1.561982E+3,	753.881448E-15
1.561986E+3,	0.000000E+0
1.561990E+3,	0.000000E+0
1.561994E+3,	23.847772E-12
1.561998E+3,	8.442974E-12
1.562002E+3,	0.000000E+0
1.562006E+3,	0.000000E+0
1.562010E+3,	0.000000E+0
1.562014E+3,	2.777316E-12
1.562018E+3,	0.000000E+0
1.562022E+3,	0.000000E+0
1.562026E+3,	0.000000E+0
1.562030E+3,	0.000000E+0
1.562034E+3,	7.932438E-12
1.562038E+3,	0.000000E+0
1.562042E+3,	0.000000E+0
1.562046E+3,	9.713910E-12
1.562050E+3,	12.273116E-12
1.562054E+3,	0.000000E+0
1.562058E+3,	8.762165E-12
1.562062E+3,	15.760724E-12
1.562066E+3,	7.456199E-12
1.562070E+3,	928.792158E-15
1.562074E+3,	0.000000E+0
1.562078E+3,	15.243747E-12
1.562082E+3,	38.836464E-12
1.562086E+3,	0.000000E+0
1.562090E+3,	0.000000E+0
1.562094E+3,	0.000000E+0
1.562098E+3,	0.000000E+0
1.562102E+3,	0.000000E+0
1.562106E+3,	3.540590E-12
1.562110E+3,	11.731507E-12
1.562114E+3,	0.000000E+0
1.562118E+3,	0.000000E+0
1.562122E+3,	0.000000E+0
1.562126E+3,	0.000000E+0
1.562130E+3,	0.000000E+0
1.562134E+3,	14.969631E-12
1.562138E+3,	7.178489E-12
1.562142E+3,	0.000000E+0
1.562146E+3,	0.000000E+0
1.562150E+3,	0.000000E+0
1.562154E+3,	0.000000E+0
1.562158E+3,	3.868353E-12
1.562162E+3,	0.000000E+0
1.562166E+3,	6.236667E-12
1.562170E+3,	33.213203E-12
1.562174E+3,	22.648256E-12
1.562178E+3,	17.359819E-12
1.562182E+3,	391.967439E-15
1.562186E+3,	0.000000E+0
1.562190E+3,	0.000000E+0
1.562194E+3,	7.376248E-12
1.562198E+3,	11.797432E-12
1.562202E+3,	3.468220E-12
1.562206E+3,	0.000000E+0
1.562210E+3,	0.000000E+0
1.562214E+3,	0.000000E+0
1.562218E+3,	4.812090E-12
1.562222E+3,	12.675377E-12
1.562226E+3,	16.421558E-12
1.562230E+3,	0.000000E+0
1.562234E+3,	7.502203E-12
1.562238E+3,	0.000000E+0
1.562242E+3,	0.000000E+0
1.562246E+3,	20.517112E-12
1.562250E+3,	4.312831E-12
1.562254E+3,	0.000000E+0
1.562258E+3,	0.000000E+0
1.562262E+3,	0.000000E+0
1.562266E+3,	15.047768E-12
1.562270E+3,	0.000000E+0
1.562274E+3,	0.000000E+0
1.562278E+3,	0.000000E+0
1.562282E+3,	0.000000E+0
1.562286E+3,	0.000000E+0
1.562290E+3,	18.251802E-12
1.562294E+3,	4.819617E-12
1.562298E+3,	3.315082E-12
1.562302E+3,	2.102375E-12
1.562306E+3,	0.000000E+0
1.562310E+3,	0.000000E+0
1.562314E+3,	21.721117E-12
1.562318E+3,	0.000000E+0
1.562322E+3,	3.020374E-12
1.562326E+3,	11.266899E-12
1.562330E+3,	48.077625E-15
1.562334E+3,	0.000000E+0
1.562338E+3,	0.000000E+0
1.562342E+3,	0.000000E+0
1.562346E+3,	0.000000E+0
1.562350E+3,	0.000000E+0
1.562354E+3,	0.000000E+0
1.562358E+3,	17.470305E-12
1.562362E+3,	6.159473E-12
1.562366E+3,	20.032810E-12
1.562370E+3,	21.288188E-12
1.562374E+3,	5.012068E-12
1.562378E+3,	2.757195E-12
1.562382E+3,	3.316608E-12
1.562386E+3,	0.000000E+0
1.562390E+3,	12.232335E-12
1.562394E+3,	0.000000E+0
1.562398E+3,	0.000000E+0
1.562402E+3,	0.000000E+0
1.562406E+3,	0.000000E+0
1.562410E+3,	0.000000E+0
1.562414E+3,	20.076126E-12
1.562418E+3,	0.000000E+0
1.562422E+3,	4.964325E-12
1.562426E+3,	0.000000E+0
1.562430E+3,	0.000000E+0
1.562434E+3,	2.923230E-12
1.562438E+3,	0.000000E+0
1.562442E+3,	0.000000E+0
1.562446E+3,	1.079204E-12
1.562450E+3,	0.000000E+0
1.562454E+3,	8.816014E-12
1.562458E+3,	0.000000E+0
1.562462E+3,	8.460488E-12
1.562466E+3,	1.732004E-12
1.562470E+3,	7.499826E-12
1.562474E+3,	1.713043E-12
1.562478E+3,	0.000000E+0
1.562482E+3,	0.000000E+0
1.562486E+3,	0.000000E+0
1.562490E+3,	8.140454E-12
1.562494E+3,	234.668239E-15
1.562498E+3,	0.000000E+0
1.562502E+3,	5.042907E-12
1.562506E+3,	5.936971E-12
1.562510E+3,	13.010940E-12
1.562514E+3,	13.909638E-12
1.562518E+3,	0.000000E+0
1.562522E+3,	0.000000E+0
1.562526E+3,	723.340878E-15
1.562530E+3,	0.000000E+0
1.562534E+3,	0.000000E+0
1.562538E+3,	0.000000E+0
1.562542E+3,	0.000000E+0
1.562546E+3,	9.785223E-12
1.562550E+3,	0.000000E+0
1.562554E+3,	7.402972E-12
1.562558E+3,	25.757572E-12
1.562562E+3,	0.000000E+0
1.562566E+3,	0.000000E+0
1.562570E+3,	0.000000E+0
1.562574E+3,	0.000000E+0
1.562578E+3,	6.102526E-12
1.562582E+3,	13.722358E-12
1.562586E+3,	0.000000E+0
1.562590E+3,	0.000000E+0
1.562594E+3,	0.000000E+0
1.562598E+3,	0.000000E+0
1.562602E+3,	10.066979E-12
1.562606E+3,	24.466827E-12
1.562610E+3,	16.414592E-12
1.562614E+3,	0.000000E+0
1.562618E+3,	12.258498E-12
1.562622E+3,	12.852888E-12
1.562626E+3,	4.449245E-12
1.562630E+3,	0.000000E+0
1.562634E+3,	0.000000E+0
1.562638E+3,	19.058392E-12
1.562642E+3,	0.000000E+0
1.562646E+3,	0.000000E+0
1.562650E+3,	12.492687E-12
