YOKOGAWA AQ6370D - S/N: 91S206859
#Date: 01/06/2023 Time: 13:39:45,	
A_WL(nm),	A_I(mW)
1.557650E+3,	0.000000E+0
1.557654E+3,	7.667053E-12
1.557658E+3,	0.000000E+0
1.557662E+3,	0.000000E+0
1.557666E+3,	7.600270E-12
1.557670E+3,	13.775006E-12
1.557674E+3,	6.273159E-12
1.557678E+3,	28.834035E-12
1.557682E+3,	13.441897E-12
1.557686E+3,	29.121718E-12
1.557690E+3,	0.000000E+0
1.557694E+3,	9.496400E-12
1.557698E+3,	3.805591E-12
1.557702E+3,	9.136293E-12
1.557706E+3,	10.011329E-12
1.557710E+3,	7.398387E-12
1.557714E+3,	26.484627E-12
1.557718E+3,	12.112445E-12
1.557722E+3,	10.641493E-12
1.557726E+3,	16.630208E-12
1.557730E+3,	32.934865E-12
1.557734E+3,	23.258458E-12
1.557738E+3,	36.212134E-12
1.557742E+3,	16.369474E-12
1.557746E+3,	42.806806E-12
1.557750E+3,	53.217176E-12
1.557754E+3,	39.980693E-12
1.557758E+3,	54.431547E-12
1.557762E+3,	53.113507E-12
1.557766E+3,	50.545216E-12
1.557770E+3,	56.425684E-12
1.557774E+3,	45.011164E-12
1.557778E+3,	35.993305E-12
1.557782E+3,	65.683426E-12
1.557786E+3,	47.667709E-12
1.557790E+3,	73.815388E-12
1.557794E+3,	43.624714E-12
1.557798E+3,	41.261867E-12
1.557802E+3,	53.188054E-12
1.557806E+3,	50.983688E-12
1.557810E+3,	52.951055E-12
1.557814E+3,	48.534392E-12
1.557818E+3,	44.106815E-12
1.557822E+3,	85.157390E-12
1.557826E+3,	73.275261E-12
1.557830E+3,	79.792003E-12
1.557834E+3,	87.514173E-12
1.557838E+3,	107.783570E-12
1.557842E+3,	112.875540E-12
1.557846E+3,	116.350178E-12
1.557850E+3,	107.270266E-12
1.557854E+3,	132.898154E-12
1.557858E+3,	107.116089E-12
1.557862E+3,	118.988469E-12
1.557866E+3,	123.543029E-12
1.557870E+3,	123.662084E-12
1.557874E+3,	113.636459E-12
1.557878E+3,	139.108165E-12
1.557882E+3,	100.762309E-12
1.557886E+3,	124.189721E-12
1.557890E+3,	104.501766E-12
1.557894E+3,	131.731721E-12
1.557898E+3,	136.443948E-12
1.557902E+3,	134.667605E-12
1.557906E+3,	132.104660E-12
1.557910E+3,	146.466587E-12
1.557914E+3,	155.246428E-12
1.557918E+3,	181.636372E-12
1.557922E+3,	207.976935E-12
1.557926E+3,	214.815680E-12
1.557930E+3,	242.808886E-12
1.557934E+3,	258.332449E-12
1.557938E+3,	293.339230E-12
1.557942E+3,	296.735316E-12
1.557946E+3,	316.845680E-12
1.557950E+3,	296.168696E-12
1.557954E+3,	323.494435E-12
1.557958E+3,	327.377359E-12
1.557962E+3,	317.544843E-12
1.557966E+3,	323.883312E-12
1.557970E+3,	310.703047E-12
1.557974E+3,	313.199171E-12
1.557978E+3,	286.811416E-12
1.557982E+3,	281.837178E-12
1.557986E+3,	278.576238E-12
1.557990E+3,	312.733116E-12
1.557994E+3,	302.668776E-12
1.557998E+3,	314.656503E-12
1.558002E+3,	343.510301E-12
1.558006E+3,	346.574025E-12
1.558010E+3,	393.076622E-12
1.558014E+3,	426.563070E-12
1.558018E+3,	458.013401E-12
1.558022E+3,	510.884007E-12
1.558026E+3,	509.806346E-12
1.558030E+3,	563.950976E-12
1.558034E+3,	586.592774E-12
1.558038E+3,	626.809502E-12
1.558042E+3,	637.672492E-12
1.558046E+3,	673.768933E-12
1.558050E+3,	685.569128E-12
1.558054E+3,	675.889125E-12
1.558058E+3,	670.522832E-12
1.558062E+3,	664.907620E-12
1.558066E+3,	638.536039E-12
1.558070E+3,	624.646299E-12
1.558074E+3,	630.176847E-12
1.558078E+3,	595.075551E-12
1.558082E+3,	603.799356E-12
1.558086E+3,	606.227029E-12
1.558090E+3,	637.370831E-12
1.558094E+3,	644.099219E-12
1.558098E+3,	700.541561E-12
1.558102E+3,	750.263378E-12
1.558106E+3,	787.413481E-12
1.558110E+3,	863.347951E-12
1.558114E+3,	943.970029E-12
1.558118E+3,	996.436200E-12
1.558122E+3,	1.063579E-9
1.558126E+3,	1.139385E-9
1.558130E+3,	1.174633E-9
1.558134E+3,	1.218496E-9
1.558138E+3,	1.206456E-9
1.558142E+3,	1.200264E-9
1.558146E+3,	1.203287E-9
1.558150E+3,	1.164516E-9
1.558154E+3,	1.138700E-9
1.558158E+3,	1.112583E-9
1.558162E+3,	1.059333E-9
1.558166E+3,	1.018282E-9
1.558170E+3,	973.405906E-12
1.558174E+3,	955.056365E-12
1.558178E+3,	930.894027E-12
1.558182E+3,	973.226311E-12
1.558186E+3,	994.892793E-12
1.558190E+3,	1.046122E-9
1.558194E+3,	1.153854E-9
1.558198E+3,	1.255100E-9
1.558202E+3,	1.331152E-9
1.558206E+3,	1.446171E-9
1.558210E+3,	1.590333E-9
1.558214E+3,	1.742500E-9
1.558218E+3,	1.793623E-9
1.558222E+3,	1.872980E-9
1.558226E+3,	1.929971E-9
1.558230E+3,	1.998197E-9
1.558234E+3,	1.987400E-9
1.558238E+3,	1.984984E-9
1.558242E+3,	1.943704E-9
1.558246E+3,	1.917177E-9
1.558250E+3,	1.879228E-9
1.558254E+3,	1.812712E-9
1.558258E+3,	1.813421E-9
1.558262E+3,	1.781209E-9
1.558266E+3,	1.760187E-9
1.558270E+3,	1.790998E-9
1.558274E+3,	1.839198E-9
1.558278E+3,	1.912407E-9
1.558282E+3,	2.011619E-9
1.558286E+3,	2.125874E-9
1.558290E+3,	2.275351E-9
1.558294E+3,	2.429511E-9
1.558298E+3,	2.608767E-9
1.558302E+3,	2.757128E-9
1.558306E+3,	2.928871E-9
1.558310E+3,	3.058806E-9
1.558314E+3,	3.170578E-9
1.558318E+3,	3.299454E-9
1.558322E+3,	3.378517E-9
1.558326E+3,	3.418199E-9
1.558330E+3,	3.430519E-9
1.558334E+3,	3.473189E-9
1.558338E+3,	3.477762E-9
1.558342E+3,	3.470862E-9
1.558346E+3,	3.428464E-9
1.558350E+3,	3.382969E-9
1.558354E+3,	3.345706E-9
1.558358E+3,	3.300213E-9
1.558362E+3,	3.301323E-9
1.558366E+3,	3.295859E-9
1.558370E+3,	3.349767E-9
1.558374E+3,	3.411650E-9
1.558378E+3,	3.532067E-9
1.558382E+3,	3.667297E-9
1.558386E+3,	3.936942E-9
1.558390E+3,	4.147729E-9
1.558394E+3,	4.400075E-9
1.558398E+3,	4.685491E-9
1.558402E+3,	5.061597E-9
1.558406E+3,	5.419669E-9
1.558410E+3,	5.724692E-9
1.558414E+3,	6.109430E-9
1.558418E+3,	6.388542E-9
1.558422E+3,	6.570868E-9
1.558426E+3,	6.747694E-9
1.558430E+3,	6.835177E-9
1.558434E+3,	6.759020E-9
1.558438E+3,	6.618527E-9
1.558442E+3,	6.356597E-9
1.558446E+3,	6.006857E-9
1.558450E+3,	5.730225E-9
1.558454E+3,	5.301762E-9
1.558458E+3,	4.891170E-9
1.558462E+3,	4.593141E-9
1.558466E+3,	4.351011E-9
1.558470E+3,	4.209688E-9
1.558474E+3,	4.260756E-9
1.558478E+3,	4.362296E-9
1.558482E+3,	4.735839E-9
1.558486E+3,	5.212250E-9
1.558490E+3,	5.776833E-9
1.558494E+3,	6.444625E-9
1.558498E+3,	7.189956E-9
1.558502E+3,	7.835650E-9
1.558506E+3,	8.320699E-9
1.558510E+3,	8.836024E-9
1.558514E+3,	9.120625E-9
1.558518E+3,	9.119219E-9
1.558522E+3,	8.874014E-9
1.558526E+3,	8.377658E-9
1.558530E+3,	7.822933E-9
1.558534E+3,	7.104669E-9
1.558538E+3,	6.139949E-9
1.558542E+3,	5.204976E-9
1.558546E+3,	4.554483E-9
1.558550E+3,	3.877595E-9
1.558554E+3,	3.478065E-9
1.558558E+3,	3.382313E-9
1.558562E+3,	3.483691E-9
1.558566E+3,	4.016692E-9
1.558570E+3,	4.799930E-9
1.558574E+3,	5.591858E-9
1.558578E+3,	6.705478E-9
1.558582E+3,	7.768179E-9
1.558586E+3,	8.569145E-9
1.558590E+3,	9.349052E-9
1.558594E+3,	9.947736E-9
1.558598E+3,	10.178400E-9
1.558602E+3,	10.066994E-9
1.558606E+3,	9.494940E-9
1.558610E+3,	8.731489E-9
1.558614E+3,	7.869653E-9
1.558618E+3,	6.672306E-9
1.558622E+3,	5.539432E-9
1.558626E+3,	4.702941E-9
1.558630E+3,	4.029405E-9
1.558634E+3,	3.627642E-9
1.558638E+3,	3.634883E-9
1.558642E+3,	3.998549E-9
1.558646E+3,	4.889766E-9
1.558650E+3,	6.077225E-9
1.558654E+3,	7.210064E-9
1.558658E+3,	8.592318E-9
1.558662E+3,	10.137780E-9
1.558666E+3,	11.465111E-9
1.558670E+3,	12.320389E-9
1.558674E+3,	13.019181E-9
1.558678E+3,	13.177463E-9
1.558682E+3,	12.890763E-9
1.558686E+3,	12.208948E-9
1.558690E+3,	10.967777E-9
1.558694E+3,	9.585460E-9
1.558698E+3,	8.332886E-9
1.558702E+3,	6.689929E-9
1.558706E+3,	5.509158E-9
1.558710E+3,	4.931558E-9
1.558714E+3,	4.704655E-9
1.558718E+3,	4.968199E-9
1.558722E+3,	5.637777E-9
1.558726E+3,	6.781041E-9
1.558730E+3,	8.657641E-9
1.558734E+3,	10.507602E-9
1.558738E+3,	12.070405E-9
1.558742E+3,	13.980772E-9
1.558746E+3,	15.463944E-9
1.558750E+3,	16.356965E-9
1.558754E+3,	16.915522E-9
1.558758E+3,	16.871375E-9
1.558762E+3,	16.196411E-9
1.558766E+3,	15.208508E-9
1.558770E+3,	13.452325E-9
1.558774E+3,	11.579274E-9
1.558778E+3,	9.991276E-9
1.558782E+3,	8.329497E-9
1.558786E+3,	6.696387E-9
1.558790E+3,	5.737257E-9
1.558794E+3,	5.479589E-9
1.558798E+3,	5.848611E-9
1.558802E+3,	6.802928E-9
1.558806E+3,	8.041184E-9
1.558810E+3,	10.104363E-9
1.558814E+3,	12.365141E-9
1.558818E+3,	14.199588E-9
1.558822E+3,	15.996623E-9
1.558826E+3,	17.749171E-9
1.558830E+3,	18.944741E-9
1.558834E+3,	19.382093E-9
1.558838E+3,	19.224168E-9
1.558842E+3,	18.328499E-9
1.558846E+3,	17.166529E-9
1.558850E+3,	15.422632E-9
1.558854E+3,	13.111415E-9
1.558858E+3,	10.868970E-9
1.558862E+3,	9.186360E-9
1.558866E+3,	7.292460E-9
1.558870E+3,	6.162541E-9
1.558874E+3,	5.754911E-9
1.558878E+3,	5.923133E-9
1.558882E+3,	6.689328E-9
1.558886E+3,	7.749779E-9
1.558890E+3,	9.339011E-9
1.558894E+3,	11.575358E-9
1.558898E+3,	13.675579E-9
1.558902E+3,	15.171098E-9
1.558906E+3,	16.893488E-9
1.558910E+3,	18.064885E-9
1.558914E+3,	18.546609E-9
1.558918E+3,	18.506151E-9
1.558922E+3,	17.654537E-9
1.558926E+3,	16.322995E-9
1.558930E+3,	14.869078E-9
1.558934E+3,	12.762032E-9
1.558938E+3,	10.742488E-9
1.558942E+3,	9.230760E-9
1.558946E+3,	7.749045E-9
1.558950E+3,	6.582575E-9
1.558954E+3,	6.121566E-9
1.558958E+3,	6.262569E-9
1.558962E+3,	7.080848E-9
1.558966E+3,	8.306081E-9
1.558970E+3,	9.676932E-9
1.558974E+3,	11.757301E-9
1.558978E+3,	13.656996E-9
1.558982E+3,	14.956540E-9
1.558986E+3,	16.209656E-9
1.558990E+3,	17.196182E-9
1.558994E+3,	17.558553E-9
1.558998E+3,	17.387627E-9
1.559002E+3,	16.458508E-9
1.559006E+3,	15.111624E-9
1.559010E+3,	13.784210E-9
1.559014E+3,	12.223421E-9
1.559018E+3,	10.337611E-9
1.559022E+3,	8.725513E-9
1.559026E+3,	7.777078E-9
1.559030E+3,	7.127606E-9
1.559034E+3,	7.091981E-9
1.559038E+3,	7.550076E-9
1.559042E+3,	8.756197E-9
1.559046E+3,	10.319329E-9
1.559050E+3,	11.848330E-9
1.559054E+3,	13.723581E-9
1.559058E+3,	15.807542E-9
1.559062E+3,	17.476869E-9
1.559066E+3,	18.546399E-9
1.559070E+3,	19.383734E-9
1.559074E+3,	19.556664E-9
1.559078E+3,	19.197914E-9
1.559082E+3,	18.003931E-9
1.559086E+3,	16.367482E-9
1.559090E+3,	14.873240E-9
1.559094E+3,	13.138575E-9
1.559098E+3,	11.041124E-9
1.559102E+3,	9.316285E-9
1.559106E+3,	8.203019E-9
1.559110E+3,	7.416287E-9
1.559114E+3,	7.380777E-9
1.559118E+3,	7.888711E-9
1.559122E+3,	9.091434E-9
1.559126E+3,	10.860152E-9
1.559130E+3,	12.670953E-9
1.559134E+3,	14.913333E-9
1.559138E+3,	17.520885E-9
1.559142E+3,	19.577204E-9
1.559146E+3,	21.059662E-9
1.559150E+3,	22.507443E-9
1.559154E+3,	23.103539E-9
1.559158E+3,	23.000914E-9
1.559162E+3,	22.022167E-9
1.559166E+3,	20.414282E-9
1.559170E+3,	18.795094E-9
1.559174E+3,	16.679554E-9
1.559178E+3,	13.938912E-9
1.559182E+3,	11.572389E-9
1.559186E+3,	9.931384E-9
1.559190E+3,	8.332444E-9
1.559194E+3,	7.597290E-9
1.559198E+3,	7.656483E-9
1.559202E+3,	8.572177E-9
1.559206E+3,	10.058019E-9
1.559210E+3,	11.711578E-9
1.559214E+3,	13.982455E-9
1.559218E+3,	16.912203E-9
1.559222E+3,	19.332247E-9
1.559226E+3,	20.953367E-9
1.559230E+3,	22.598994E-9
1.559234E+3,	23.376590E-9
1.559238E+3,	23.326238E-9
1.559242E+3,	22.352280E-9
1.559246E+3,	20.638456E-9
1.559250E+3,	18.796105E-9
1.559254E+3,	16.425727E-9
1.559258E+3,	13.526652E-9
1.559262E+3,	11.068738E-9
1.559266E+3,	9.326835E-9
1.559270E+3,	7.752188E-9
1.559274E+3,	7.095358E-9
1.559278E+3,	7.229484E-9
1.559282E+3,	8.091858E-9
1.559286E+3,	9.563578E-9
1.559290E+3,	11.147427E-9
1.559294E+3,	13.097977E-9
1.559298E+3,	15.385644E-9
1.559302E+3,	17.108507E-9
1.559306E+3,	18.109556E-9
1.559310E+3,	18.737467E-9
1.559314E+3,	18.635371E-9
1.559318E+3,	17.967131E-9
1.559322E+3,	16.426817E-9
1.559326E+3,	14.473870E-9
1.559330E+3,	12.774311E-9
1.559334E+3,	10.898428E-9
1.559338E+3,	8.825328E-9
1.559342E+3,	7.265117E-9
1.559346E+3,	6.354353E-9
1.559350E+3,	5.850513E-9
1.559354E+3,	6.004799E-9
1.559358E+3,	6.589896E-9
1.559362E+3,	7.797539E-9
1.559366E+3,	9.215779E-9
1.559370E+3,	10.564548E-9
1.559374E+3,	12.115739E-9
1.559378E+3,	13.770849E-9
1.559382E+3,	14.923190E-9
1.559386E+3,	15.526496E-9
1.559390E+3,	15.811745E-9
1.559394E+3,	15.620371E-9
1.559398E+3,	15.017125E-9
1.559402E+3,	13.737463E-9
1.559406E+3,	12.329003E-9
1.559410E+3,	11.030382E-9
1.559414E+3,	9.541239E-9
1.559418E+3,	7.954343E-9
1.559422E+3,	6.762087E-9
1.559426E+3,	6.102270E-9
1.559430E+3,	5.736478E-9
1.559434E+3,	5.951818E-9
1.559438E+3,	6.519796E-9
1.559442E+3,	7.821148E-9
1.559446E+3,	9.374203E-9
1.559450E+3,	10.962998E-9
1.559454E+3,	12.811588E-9
1.559458E+3,	14.974191E-9
1.559462E+3,	16.613218E-9
1.559466E+3,	17.543875E-9
1.559470E+3,	18.278014E-9
1.559474E+3,	18.389090E-9
1.559478E+3,	17.915834E-9
1.559482E+3,	16.597333E-9
1.559486E+3,	14.820946E-9
1.559490E+3,	13.218291E-9
1.559494E+3,	11.451957E-9
1.559498E+3,	9.528462E-9
1.559502E+3,	7.987147E-9
1.559506E+3,	7.178999E-9
1.559510E+3,	6.952696E-9
1.559514E+3,	7.532658E-9
1.559518E+3,	8.540527E-9
1.559522E+3,	10.563776E-9
1.559526E+3,	12.889818E-9
1.559530E+3,	14.992113E-9
1.559534E+3,	17.388328E-9
1.559538E+3,	19.933423E-9
1.559542E+3,	21.646002E-9
1.559546E+3,	22.459344E-9
1.559550E+3,	22.737734E-9
1.559554E+3,	22.127519E-9
1.559558E+3,	20.941902E-9
1.559562E+3,	18.610210E-9
1.559566E+3,	16.028569E-9
1.559570E+3,	13.852401E-9
1.559574E+3,	11.686278E-9
1.559578E+3,	9.425804E-9
1.559582E+3,	7.829103E-9
1.559586E+3,	7.133633E-9
1.559590E+3,	7.143937E-9
1.559594E+3,	7.924480E-9
1.559598E+3,	9.089702E-9
1.559602E+3,	11.057369E-9
1.559606E+3,	13.100179E-9
1.559610E+3,	14.827747E-9
1.559614E+3,	16.563369E-9
1.559618E+3,	18.193930E-9
1.559622E+3,	19.134433E-9
1.559626E+3,	19.381342E-9
1.559630E+3,	18.953911E-9
1.559634E+3,	18.004710E-9
1.559638E+3,	16.691984E-9
1.559642E+3,	14.601654E-9
1.559646E+3,	12.494012E-9
1.559650E+3,	10.842106E-9
1.559654E+3,	9.182121E-9
1.559658E+3,	7.576632E-9
1.559662E+3,	6.538765E-9
1.559666E+3,	6.144216E-9
1.559670E+3,	6.262538E-9
1.559674E+3,	6.871062E-9
1.559678E+3,	7.759228E-9
1.559682E+3,	9.189667E-9
1.559686E+3,	10.728876E-9
1.559690E+3,	12.025194E-9
1.559694E+3,	13.397437E-9
1.559698E+3,	14.759207E-9
1.559702E+3,	15.582482E-9
1.559706E+3,	15.962659E-9
1.559710E+3,	15.939279E-9
1.559714E+3,	15.483651E-9
1.559718E+3,	14.780254E-9
1.559722E+3,	13.397862E-9
1.559726E+3,	11.924904E-9
1.559730E+3,	10.654013E-9
1.559734E+3,	9.308989E-9
1.559738E+3,	7.953636E-9
1.559742E+3,	7.017265E-9
1.559746E+3,	6.612704E-9
1.559750E+3,	6.691271E-9
1.559754E+3,	7.339446E-9
1.559758E+3,	8.223602E-9
1.559762E+3,	9.778269E-9
1.559766E+3,	11.463877E-9
1.559770E+3,	12.976777E-9
1.559774E+3,	14.641571E-9
1.559778E+3,	16.371846E-9
1.559782E+3,	17.499125E-9
1.559786E+3,	18.022172E-9
1.559790E+3,	18.020889E-9
1.559794E+3,	17.470739E-9
1.559798E+3,	16.436822E-9
1.559802E+3,	14.499603E-9
1.559806E+3,	12.471338E-9
1.559810E+3,	10.839772E-9
1.559814E+3,	9.204028E-9
1.559818E+3,	7.629319E-9
1.559822E+3,	6.729187E-9
1.559826E+3,	6.550579E-9
1.559830E+3,	7.146028E-9
1.559834E+3,	8.525299E-9
1.559838E+3,	10.081217E-9
1.559842E+3,	12.380535E-9
1.559846E+3,	14.587645E-9
1.559850E+3,	16.390570E-9
1.559854E+3,	18.243188E-9
1.559858E+3,	19.933076E-9
1.559862E+3,	20.787127E-9
1.559866E+3,	20.829334E-9
1.559870E+3,	20.110542E-9
1.559874E+3,	18.821685E-9
1.559878E+3,	17.336480E-9
1.559882E+3,	14.824763E-9
1.559886E+3,	12.271030E-9
1.559890E+3,	10.433288E-9
1.559894E+3,	8.752487E-9
1.559898E+3,	7.333616E-9
1.559902E+3,	6.619282E-9
1.559906E+3,	6.687638E-9
1.559910E+3,	7.538287E-9
1.559914E+3,	8.926476E-9
1.559918E+3,	10.398680E-9
1.559922E+3,	12.594111E-9
1.559926E+3,	14.651011E-9
1.559930E+3,	16.135086E-9
1.559934E+3,	17.487445E-9
1.559938E+3,	18.601839E-9
1.559942E+3,	18.956365E-9
1.559946E+3,	18.701780E-9
1.559950E+3,	17.744876E-9
1.559954E+3,	16.294976E-9
1.559958E+3,	14.832841E-9
1.559962E+3,	12.584780E-9
1.559966E+3,	10.409844E-9
1.559970E+3,	8.876862E-9
1.559974E+3,	7.369033E-9
1.559978E+3,	6.067363E-9
1.559982E+3,	5.375256E-9
1.559986E+3,	5.220887E-9
1.559990E+3,	5.723424E-9
1.559994E+3,	6.689169E-9
1.559998E+3,	7.737608E-9
1.560002E+3,	9.387645E-9
1.560006E+3,	10.921705E-9
1.560010E+3,	12.216095E-9
1.560014E+3,	13.848921E-9
1.560018E+3,	15.075067E-9
1.560022E+3,	15.785941E-9
1.560026E+3,	16.139079E-9
1.560030E+3,	16.068701E-9
1.560034E+3,	15.540674E-9
1.560038E+3,	14.781484E-9
1.560042E+3,	13.299726E-9
1.560046E+3,	11.705911E-9
1.560050E+3,	10.357361E-9
1.560054E+3,	8.688060E-9
1.560058E+3,	7.405870E-9
1.560062E+3,	6.623028E-9
1.560066E+3,	6.054343E-9
1.560070E+3,	6.122582E-9
1.560074E+3,	6.711904E-9
1.560078E+3,	7.747820E-9
1.560082E+3,	9.334926E-9
1.560086E+3,	11.041360E-9
1.560090E+3,	12.635960E-9
1.560094E+3,	14.704778E-9
1.560098E+3,	16.287795E-9
1.560102E+3,	17.266121E-9
1.560106E+3,	17.907230E-9
1.560110E+3,	17.887454E-9
1.560114E+3,	17.388340E-9
1.560118E+3,	16.140301E-9
1.560122E+3,	14.421485E-9
1.560126E+3,	12.809235E-9
1.560130E+3,	10.938545E-9
1.560134E+3,	8.910258E-9
1.560138E+3,	7.510125E-9
1.560142E+3,	6.777519E-9
1.560146E+3,	6.546795E-9
1.560150E+3,	7.066398E-9
1.560154E+3,	8.053500E-9
1.560158E+3,	9.952916E-9
1.560162E+3,	12.047314E-9
1.560166E+3,	13.660760E-9
1.560170E+3,	15.825027E-9
1.560174E+3,	17.582366E-9
1.560178E+3,	18.634232E-9
1.560182E+3,	19.159103E-9
1.560186E+3,	18.940058E-9
1.560190E+3,	18.103112E-9
1.560194E+3,	16.927296E-9
1.560198E+3,	14.812722E-9
1.560202E+3,	12.482078E-9
1.560206E+3,	10.667940E-9
1.560210E+3,	8.573280E-9
1.560214E+3,	7.072619E-9
1.560218E+3,	6.319768E-9
1.560222E+3,	6.062268E-9
1.560226E+3,	6.540630E-9
1.560230E+3,	7.426852E-9
1.560234E+3,	8.831206E-9
1.560238E+3,	10.823038E-9
1.560242E+3,	12.752397E-9
1.560246E+3,	14.207237E-9
1.560250E+3,	15.718018E-9
1.560254E+3,	16.723915E-9
1.560258E+3,	17.147312E-9
1.560262E+3,	16.958541E-9
1.560266E+3,	16.219519E-9
1.560270E+3,	15.182102E-9
1.560274E+3,	13.466587E-9
1.560278E+3,	11.589473E-9
1.560282E+3,	10.014495E-9
1.560286E+3,	8.283413E-9
1.560290E+3,	6.550995E-9
1.560294E+3,	5.407051E-9
1.560298E+3,	4.926681E-9
1.560302E+3,	4.815148E-9
1.560306E+3,	5.284049E-9
1.560310E+3,	6.070199E-9
1.560314E+3,	7.565825E-9
1.560318E+3,	9.160011E-9
1.560322E+3,	10.514970E-9
1.560326E+3,	12.213263E-9
1.560330E+3,	13.655892E-9
1.560334E+3,	14.556912E-9
1.560338E+3,	15.331916E-9
1.560342E+3,	15.723402E-9
1.560346E+3,	15.549158E-9
1.560350E+3,	15.062767E-9
1.560354E+3,	13.967913E-9
1.560358E+3,	12.606418E-9
1.560362E+3,	11.327279E-9
1.560366E+3,	9.494176E-9
1.560370E+3,	7.872872E-9
1.560374E+3,	6.768362E-9
1.560378E+3,	5.736688E-9
1.560382E+3,	5.269556E-9
1.560386E+3,	5.340431E-9
1.560390E+3,	5.934776E-9
1.560394E+3,	7.267117E-9
1.560398E+3,	8.964611E-9
1.560402E+3,	10.441980E-9
1.560406E+3,	12.561672E-9
1.560410E+3,	14.477589E-9
1.560414E+3,	15.955018E-9
1.560418E+3,	17.457354E-9
1.560422E+3,	18.210112E-9
1.560426E+3,	18.338707E-9
1.560430E+3,	17.783348E-9
1.560434E+3,	16.695362E-9
1.560438E+3,	15.450383E-9
1.560442E+3,	13.755262E-9
1.560446E+3,	11.411230E-9
1.560450E+3,	9.276509E-9
1.560454E+3,	7.873490E-9
1.560458E+3,	6.625596E-9
1.560462E+3,	6.081725E-9
1.560466E+3,	6.118480E-9
1.560470E+3,	7.025103E-9
1.560474E+3,	8.435121E-9
1.560478E+3,	9.810185E-9
1.560482E+3,	11.700207E-9
1.560486E+3,	13.435985E-9
1.560490E+3,	14.731121E-9
1.560494E+3,	15.915060E-9
1.560498E+3,	16.721231E-9
1.560502E+3,	16.777932E-9
1.560506E+3,	16.365020E-9
1.560510E+3,	15.218493E-9
1.560514E+3,	13.722990E-9
1.560518E+3,	12.326129E-9
1.560522E+3,	10.158437E-9
1.560526E+3,	8.262795E-9
1.560530E+3,	7.009366E-9
1.560534E+3,	5.839812E-9
1.560538E+3,	5.282097E-9
1.560542E+3,	5.311428E-9
1.560546E+3,	5.771056E-9
1.560550E+3,	6.876073E-9
1.560554E+3,	8.164129E-9
1.560558E+3,	9.325416E-9
1.560562E+3,	10.769104E-9
1.560566E+3,	11.939975E-9
1.560570E+3,	12.609266E-9
1.560574E+3,	13.043471E-9
1.560578E+3,	13.019243E-9
1.560582E+3,	12.620692E-9
1.560586E+3,	11.646459E-9
1.560590E+3,	10.555473E-9
1.560594E+3,	9.519380E-9
1.560598E+3,	8.288018E-9
1.560602E+3,	6.874414E-9
1.560606E+3,	5.704706E-9
1.560610E+3,	5.014104E-9
1.560614E+3,	4.482106E-9
1.560618E+3,	4.378700E-9
1.560622E+3,	4.559907E-9
1.560626E+3,	5.192645E-9
1.560630E+3,	6.025486E-9
1.560634E+3,	6.886750E-9
1.560638E+3,	8.127298E-9
1.560642E+3,	9.241097E-9
1.560646E+3,	10.064172E-9
1.560650E+3,	10.800717E-9
1.560654E+3,	11.485409E-9
1.560658E+3,	11.870064E-9
1.560662E+3,	11.875505E-9
1.560666E+3,	11.536915E-9
1.560670E+3,	10.973373E-9
1.560674E+3,	10.331915E-9
1.560678E+3,	9.219740E-9
1.560682E+3,	8.057741E-9
1.560686E+3,	7.100312E-9
1.560690E+3,	5.982108E-9
1.560694E+3,	5.158464E-9
1.560698E+3,	4.706249E-9
1.560702E+3,	4.516226E-9
1.560706E+3,	4.746627E-9
1.560710E+3,	5.459785E-9
1.560714E+3,	6.323572E-9
1.560718E+3,	7.797409E-9
1.560722E+3,	9.385526E-9
1.560726E+3,	10.728611E-9
1.560730E+3,	12.342941E-9
1.560734E+3,	13.638302E-9
1.560738E+3,	14.475446E-9
1.560742E+3,	15.053656E-9
1.560746E+3,	15.082016E-9
1.560750E+3,	14.721118E-9
1.560754E+3,	13.955615E-9
1.560758E+3,	12.582732E-9
1.560762E+3,	11.069909E-9
1.560766E+3,	9.786978E-9
1.560770E+3,	8.020581E-9
1.560774E+3,	6.608612E-9
1.560778E+3,	5.754092E-9
1.560782E+3,	5.132898E-9
1.560786E+3,	5.064807E-9
1.560790E+3,	5.375285E-9
1.560794E+3,	6.302700E-9
1.560798E+3,	7.431629E-9
1.560802E+3,	8.491377E-9
1.560806E+3,	9.831218E-9
1.560810E+3,	10.908468E-9
1.560814E+3,	11.603304E-9
1.560818E+3,	12.107735E-9
1.560822E+3,	12.151289E-9
1.560826E+3,	11.811243E-9
1.560830E+3,	11.201503E-9
1.560834E+3,	10.104021E-9
1.560838E+3,	8.941448E-9
1.560842E+3,	7.870555E-9
1.560846E+3,	6.507144E-9
1.560850E+3,	5.474721E-9
1.560854E+3,	4.841214E-9
1.560858E+3,	4.385005E-9
1.560862E+3,	4.226475E-9
1.560866E+3,	4.320313E-9
1.560870E+3,	4.631584E-9
1.560874E+3,	5.171872E-9
1.560878E+3,	5.696183E-9
1.560882E+3,	6.027381E-9
1.560886E+3,	6.378383E-9
1.560890E+3,	6.585853E-9
1.560894E+3,	6.596327E-9
1.560898E+3,	6.477952E-9
1.560902E+3,	6.246370E-9
1.560906E+3,	6.026064E-9
1.560910E+3,	5.698110E-9
1.560914E+3,	5.435664E-9
1.560918E+3,	5.299999E-9
1.560922E+3,	5.186308E-9
1.560926E+3,	5.181544E-9
1.560930E+3,	5.241314E-9
1.560934E+3,	5.315825E-9
1.560938E+3,	5.460266E-9
1.560942E+3,	5.576659E-9
1.560946E+3,	5.621540E-9
1.560950E+3,	5.597517E-9
1.560954E+3,	5.484321E-9
1.560958E+3,	5.345579E-9
1.560962E+3,	5.152932E-9
1.560966E+3,	4.988313E-9
1.560970E+3,	4.840362E-9
1.560974E+3,	4.726562E-9
1.560978E+3,	4.698642E-9
1.560982E+3,	4.732431E-9
1.560986E+3,	4.839995E-9
1.560990E+3,	5.030221E-9
1.560994E+3,	5.231971E-9
1.560998E+3,	5.390642E-9
1.561002E+3,	5.591074E-9
1.561006E+3,	5.728384E-9
1.561010E+3,	5.775421E-9
1.561014E+3,	5.763724E-9
1.561018E+3,	5.705069E-9
1.561022E+3,	5.633362E-9
1.561026E+3,	5.542676E-9
1.561030E+3,	5.463158E-9
1.561034E+3,	5.458895E-9
1.561038E+3,	5.560026E-9
1.561042E+3,	5.706468E-9
1.561046E+3,	5.902438E-9
1.561050E+3,	6.097052E-9
1.561054E+3,	6.323941E-9
1.561058E+3,	6.520149E-9
1.561062E+3,	6.627504E-9
1.561066E+3,	6.663325E-9
1.561070E+3,	6.578622E-9
1.561074E+3,	6.460523E-9
1.561078E+3,	6.187839E-9
1.561082E+3,	5.915366E-9
1.561086E+3,	5.666772E-9
1.561090E+3,	5.420666E-9
1.561094E+3,	5.281653E-9
1.561098E+3,	5.279191E-9
1.561102E+3,	5.429138E-9
1.561106E+3,	5.682856E-9
1.561110E+3,	5.972282E-9
1.561114E+3,	6.374227E-9
1.561118E+3,	6.844122E-9
1.561122E+3,	7.191712E-9
1.561126E+3,	7.351620E-9
1.561130E+3,	7.443071E-9
1.561134E+3,	7.350800E-9
1.561138E+3,	7.179311E-9
1.561142E+3,	6.739583E-9
1.561146E+3,	6.260547E-9
1.561150E+3,	5.840138E-9
1.561154E+3,	5.357772E-9
1.561158E+3,	4.964217E-9
1.561162E+3,	4.754019E-9
1.561166E+3,	4.645271E-9
1.561170E+3,	4.735990E-9
1.561174E+3,	4.888834E-9
1.561178E+3,	5.237334E-9
1.561182E+3,	5.571845E-9
1.561186E+3,	5.813530E-9
1.561190E+3,	6.048928E-9
1.561194E+3,	6.177720E-9
1.561198E+3,	6.105961E-9
1.561202E+3,	5.911627E-9
1.561206E+3,	5.508530E-9
1.561210E+3,	5.063479E-9
1.561214E+3,	4.648621E-9
1.561218E+3,	4.162063E-9
1.561222E+3,	3.787152E-9
1.561226E+3,	3.615937E-9
1.561230E+3,	3.548276E-9
1.561234E+3,	3.607895E-9
1.561238E+3,	3.818196E-9
1.561242E+3,	4.170635E-9
1.561246E+3,	4.565586E-9
1.561250E+3,	4.852723E-9
1.561254E+3,	5.164459E-9
1.561258E+3,	5.289652E-9
1.561262E+3,	5.325657E-9
1.561266E+3,	5.217373E-9
1.561270E+3,	4.882496E-9
1.561274E+3,	4.489772E-9
1.561278E+3,	4.074153E-9
1.561282E+3,	3.643435E-9
1.561286E+3,	3.296141E-9
1.561290E+3,	3.113351E-9
1.561294E+3,	3.002546E-9
1.561298E+3,	3.022875E-9
1.561302E+3,	3.134872E-9
1.561306E+3,	3.405574E-9
1.561310E+3,	3.653767E-9
1.561314E+3,	3.870090E-9
1.561318E+3,	4.097857E-9
1.561322E+3,	4.237907E-9
1.561326E+3,	4.215841E-9
1.561330E+3,	4.048598E-9
1.561334E+3,	3.828861E-9
1.561338E+3,	3.612478E-9
1.561342E+3,	3.322460E-9
1.561346E+3,	3.016421E-9
1.561350E+3,	2.748203E-9
1.561354E+3,	2.598319E-9
1.561358E+3,	2.549572E-9
1.561362E+3,	2.634346E-9
1.561366E+3,	2.724790E-9
1.561370E+3,	2.892442E-9
1.561374E+3,	3.079864E-9
1.561378E+3,	3.213028E-9
1.561382E+3,	3.322334E-9
1.561386E+3,	3.329672E-9
1.561390E+3,	3.249847E-9
1.561394E+3,	3.110354E-9
1.561398E+3,	2.879220E-9
1.561402E+3,	2.661080E-9
1.561406E+3,	2.339719E-9
1.561410E+3,	2.067230E-9
1.561414E+3,	1.909364E-9
1.561418E+3,	1.848187E-9
1.561422E+3,	1.798587E-9
1.561426E+3,	1.905725E-9
1.561430E+3,	2.013496E-9
1.561434E+3,	2.193729E-9
1.561438E+3,	2.372519E-9
1.561442E+3,	2.497346E-9
1.561446E+3,	2.604249E-9
1.561450E+3,	2.634659E-9
1.561454E+3,	2.589258E-9
1.561458E+3,	2.429108E-9
1.561462E+3,	2.244177E-9
1.561466E+3,	2.053994E-9
1.561470E+3,	1.773048E-9
1.561474E+3,	1.591274E-9
1.561478E+3,	1.415418E-9
1.561482E+3,	1.281896E-9
1.561486E+3,	1.179473E-9
1.561490E+3,	1.187043E-9
1.561494E+3,	1.196882E-9
1.561498E+3,	1.245406E-9
1.561502E+3,	1.298541E-9
1.561506E+3,	1.353018E-9
1.561510E+3,	1.349062E-9
1.561514E+3,	1.292029E-9
1.561518E+3,	1.245823E-9
1.561522E+3,	1.148509E-9
1.561526E+3,	1.029050E-9
1.561530E+3,	903.423822E-12
1.561534E+3,	749.061635E-12
1.561538E+3,	639.288008E-12
1.561542E+3,	550.762735E-12
1.561546E+3,	533.574565E-12
1.561550E+3,	543.036834E-12
1.561554E+3,	548.558926E-12
1.561558E+3,	626.742776E-12
1.561562E+3,	679.751360E-12
1.561566E+3,	734.542256E-12
1.561570E+3,	796.093002E-12
1.561574E+3,	802.929160E-12
1.561578E+3,	770.091470E-12
1.561582E+3,	728.830706E-12
1.561586E+3,	662.687396E-12
1.561590E+3,	581.418738E-12
1.561594E+3,	471.022892E-12
1.561598E+3,	397.807465E-12
1.561602E+3,	351.245338E-12
1.561606E+3,	320.429178E-12
1.561610E+3,	328.434763E-12
1.561614E+3,	342.459894E-12
1.561618E+3,	408.214745E-12
1.561622E+3,	506.698067E-12
1.561626E+3,	536.885043E-12
1.561630E+3,	593.789454E-12
1.561634E+3,	593.563444E-12
1.561638E+3,	583.938040E-12
1.561642E+3,	567.773976E-12
1.561646E+3,	522.735013E-12
1.561650E+3,	436.888977E-12
1.561654E+3,	375.449109E-12
1.561658E+3,	336.332949E-12
1.561662E+3,	254.583482E-12
1.561666E+3,	229.352770E-12
1.561670E+3,	208.480806E-12
1.561674E+3,	224.850673E-12
1.561678E+3,	255.063756E-12
1.561682E+3,	233.003852E-12
1.561686E+3,	256.843329E-12
1.561690E+3,	293.532906E-12
1.561694E+3,	275.184239E-12
1.561698E+3,	281.353149E-12
1.561702E+3,	263.524352E-12
1.561706E+3,	267.505118E-12
1.561710E+3,	235.586842E-12
1.561714E+3,	224.681050E-12
1.561718E+3,	192.680961E-12
1.561722E+3,	184.774659E-12
1.561726E+3,	161.039745E-12
1.561730E+3,	173.261316E-12
1.561734E+3,	152.575982E-12
1.561738E+3,	182.150679E-12
1.561742E+3,	181.812612E-12
1.561746E+3,	187.537951E-12
1.561750E+3,	197.732170E-12
1.561754E+3,	178.572882E-12
1.561758E+3,	164.802049E-12
1.561762E+3,	162.698370E-12
1.561766E+3,	154.931824E-12
1.561770E+3,	154.286696E-12
1.561774E+3,	142.147697E-12
1.561778E+3,	139.533541E-12
1.561782E+3,	138.305768E-12
1.561786E+3,	137.345146E-12
1.561790E+3,	172.084349E-12
1.561794E+3,	174.870007E-12
1.561798E+3,	188.564806E-12
1.561802E+3,	155.827812E-12
1.561806E+3,	159.987736E-12
1.561810E+3,	153.637730E-12
1.561814E+3,	166.898028E-12
1.561818E+3,	119.706806E-12
1.561822E+3,	107.307870E-12
1.561826E+3,	104.571795E-12
1.561830E+3,	116.365403E-12
1.561834E+3,	67.699507E-12
1.561838E+3,	85.214307E-12
1.561842E+3,	72.930476E-12
1.561846E+3,	75.067406E-12
1.561850E+3,	76.414707E-12
1.561854E+3,	84.338262E-12
1.561858E+3,	79.752459E-12
1.561862E+3,	84.307432E-12
1.561866E+3,	91.045605E-12
1.561870E+3,	101.277252E-12
1.561874E+3,	70.703169E-12
1.561878E+3,	81.682408E-12
1.561882E+3,	55.344014E-12
1.561886E+3,	94.869043E-12
1.561890E+3,	79.829432E-12
1.561894E+3,	79.213247E-12
1.561898E+3,	47.847323E-12
1.561902E+3,	84.882995E-12
1.561906E+3,	82.572488E-12
1.561910E+3,	91.454384E-12
1.561914E+3,	81.532713E-12
1.561918E+3,	62.941072E-12
1.561922E+3,	80.411202E-12
1.561926E+3,	90.097683E-12
1.561930E+3,	83.157758E-12
1.561934E+3,	54.984857E-12
1.561938E+3,	57.536804E-12
1.561942E+3,	53.466902E-12
1.561946E+3,	61.309612E-12
1.561950E+3,	51.255796E-12
1.561954E+3,	29.288549E-12
1.561958E+3,	50.382269E-12
1.561962E+3,	32.152966E-12
1.561966E+3,	35.950156E-12
1.561970E+3,	21.366420E-12
1.561974E+3,	31.728134E-12
1.561978E+3,	37.882927E-12
1.561982E+3,	42.109707E-12
1.561986E+3,	44.373420E-12
1.561990E+3,	39.351289E-12
1.561994E+3,	30.299681E-12
1.561998E+3,	32.643255E-12
1.562002E+3,	17.148992E-12
1.562006E+3,	18.760742E-12
1.562010E+3,	19.354431E-12
1.562014E+3,	5.363240E-12
1.562018E+3,	32.228484E-12
1.562022E+3,	10.684391E-12
1.562026E+3,	13.204718E-12
1.562030E+3,	16.519924E-12
1.562034E+3,	20.393747E-12
1.562038E+3,	13.026605E-12
1.562042E+3,	10.600671E-12
1.562046E+3,	27.376516E-12
1.562050E+3,	32.116846E-12
1.562054E+3,	22.181581E-12
1.562058E+3,	22.971650E-12
1.562062E+3,	17.981926E-12
1.562066E+3,	30.283610E-12
1.562070E+3,	12.870467E-12
1.562074E+3,	14.346121E-12
1.562078E+3,	37.271646E-12
1.562082E+3,	19.632202E-12
1.562086E+3,	30.271201E-12
1.562090E+3,	35.172449E-12
1.562094E+3,	3.762961E-12
1.562098E+3,	20.347110E-12
1.562102E+3,	17.353644E-12
1.562106E+3,	36.928900E-12
1.562110E+3,	3.652897E-12
1.562114E+3,	21.836822E-12
1.562118E+3,	0.000000E+0
1.562122E+3,	16.692071E-12
1.562126E+3,	0.000000E+0
1.562130E+3,	0.000000E+0
1.562134E+3,	6.514355E-12
1.562138E+3,	0.000000E+0
1.562142E+3,	657.822356E-15
1.562146E+3,	37.169342E-12
1.562150E+3,	8.712533E-12
1.562154E+3,	3.026071E-12
1.562158E+3,	15.695390E-12
1.562162E+3,	23.641159E-12
1.562166E+3,	12.254917E-12
1.562170E+3,	0.000000E+0
1.562174E+3,	0.000000E+0
1.562178E+3,	11.613309E-12
1.562182E+3,	0.000000E+0
1.562186E+3,	0.000000E+0
1.562190E+3,	2.782562E-12
1.562194E+3,	3.499916E-12
1.562198E+3,	5.016674E-12
1.562202E+3,	0.000000E+0
1.562206E+3,	6.225860E-12
1.562210E+3,	3.695004E-12
1.562214E+3,	2.440674E-12
1.562218E+3,	4.248858E-12
1.562222E+3,	3.360810E-12
1.562226E+3,	39.178223E-12
1.562230E+3,	329.388882E-15
1.562234E+3,	23.722365E-12
1.562238E+3,	0.000000E+0
1.562242E+3,	15.876657E-12
1.562246E+3,	6.888280E-12
1.562250E+3,	0.000000E+0
1.562254E+3,	0.000000E+0
1.562258E+3,	0.000000E+0
1.562262E+3,	0.000000E+0
1.562266E+3,	0.000000E+0
1.562270E+3,	0.000000E+0
1.562274E+3,	0.000000E+0
1.562278E+3,	29.196753E-12
1.562282E+3,	0.000000E+0
1.562286E+3,	0.000000E+0
1.562290E+3,	0.000000E+0
1.562294E+3,	3.513836E-12
1.562298E+3,	7.548047E-12
1.562302E+3,	0.000000E+0
1.562306E+3,	1.403817E-12
1.562310E+3,	28.266223E-12
1.562314E+3,	22.536434E-12
1.562318E+3,	5.450504E-12
1.562322E+3,	8.356221E-12
1.562326E+3,	6.452225E-12
1.562330E+3,	0.000000E+0
1.562334E+3,	2.613423E-12
1.562338E+3,	0.000000E+0
1.562342E+3,	18.260047E-12
1.562346E+3,	0.000000E+0
1.562350E+3,	0.000000E+0
1.562354E+3,	6.472413E-12
1.562358E+3,	0.000000E+0
1.562362E+3,	374.681735E-15
1.562366E+3,	12.769214E-12
1.562370E+3,	11.903131E-12
1.562374E+3,	15.911052E-12
1.562378E+3,	1.103647E-12
1.562382E+3,	5.049443E-12
1.562386E+3,	0.000000E+0
1.562390E+3,	22.099223E-12
1.562394E+3,	0.000000E+0
1.562398E+3,	0.000000E+0
1.562402E+3,	0.000000E+0
1.562406E+3,	166.842934E-15
1.562410E+3,	0.000000E+0
1.562414E+3,	4.898921E-12
1.562418E+3,	0.000000E+0
1.562422E+3,	560.936689E-15
1.562426E+3,	0.000000E+0
1.562430E+3,	0.000000E+0
1.562434E+3,	5.083945E-12
1.562438E+3,	3.678145E-12
1.562442E+3,	0.000000E+0
1.562446E+3,	0.000000E+0
1.562450E+3,	0.000000E+0
1.562454E+3,	9.170473E-12
1.562458E+3,	1.954512E-12
1.562462E+3,	0.000000E+0
1.562466E+3,	2.390143E-12
1.562470E+3,	0.000000E+0
1.562474E+3,	0.000000E+0
1.562478E+3,	5.474162E-12
1.562482E+3,	10.782973E-12
1.562486E+3,	14.597845E-12
1.562490E+3,	2.742687E-12
1.562494E+3,	6.356741E-12
1.562498E+3,	13.850396E-12
1.562502E+3,	3.542335E-12
1.562506E+3,	0.000000E+0
1.562510E+3,	0.000000E+0
1.562514E+3,	0.000000E+0
1.562518E+3,	26.360377E-12
1.562522E+3,	0.000000E+0
1.562526E+3,	7.968114E-12
1.562530E+3,	0.000000E+0
1.562534E+3,	0.000000E+0
1.562538E+3,	5.883831E-12
1.562542E+3,	0.000000E+0
1.562546E+3,	25.212751E-12
1.562550E+3,	1.785674E-12
1.562554E+3,	0.000000E+0
1.562558E+3,	0.000000E+0
1.562562E+3,	0.000000E+0
1.562566E+3,	0.000000E+0
1.562570E+3,	0.000000E+0
1.562574E+3,	6.251426E-12
1.562578E+3,	0.000000E+0
1.562582E+3,	0.000000E+0
1.562586E+3,	0.000000E+0
1.562590E+3,	0.000000E+0
1.562594E+3,	0.000000E+0
1.562598E+3,	11.871841E-12
1.562602E+3,	0.000000E+0
1.562606E+3,	0.000000E+0
1.562610E+3,	0.000000E+0
1.562614E+3,	0.000000E+0
1.562618E+3,	0.000000E+0
1.562622E+3,	9.183480E-12
1.562626E+3,	8.352201E-12
1.562630E+3,	9.836047E-12
1.562634E+3,	5.541347E-12
1.562638E+3,	0.000000E+0
1.562642E+3,	8.490130E-12
1.562646E+3,	0.000000E+0
1.562650E+3,	0.000000E+0
