YOKOGAWA AQ6370D - S/N: 91S206859
#Date: 01/06/2023 Time: 14:35:50,	
A_WL(nm),	A_I(mW)
1.557650E+3,	0.000000E+0
1.557654E+3,	0.000000E+0
1.557658E+3,	0.000000E+0
1.557662E+3,	17.150265E-12
1.557666E+3,	0.000000E+0
1.557670E+3,	187.227360E-15
1.557674E+3,	0.000000E+0
1.557678E+3,	11.219255E-12
1.557682E+3,	0.000000E+0
1.557686E+3,	0.000000E+0
1.557690E+3,	6.128513E-12
1.557694E+3,	0.000000E+0
1.557698E+3,	2.790077E-12
1.557702E+3,	10.303730E-12
1.557706E+3,	0.000000E+0
1.557710E+3,	611.902394E-15
1.557714E+3,	16.989665E-12
1.557718E+3,	0.000000E+0
1.557722E+3,	11.537019E-12
1.557726E+3,	0.000000E+0
1.557730E+3,	30.171179E-12
1.557734E+3,	16.302628E-12
1.557738E+3,	1.159871E-12
1.557742E+3,	13.325484E-12
1.557746E+3,	0.000000E+0
1.557750E+3,	0.000000E+0
1.557754E+3,	1.214948E-12
1.557758E+3,	8.878173E-12
1.557762E+3,	28.647072E-12
1.557766E+3,	0.000000E+0
1.557770E+3,	0.000000E+0
1.557774E+3,	0.000000E+0
1.557778E+3,	0.000000E+0
1.557782E+3,	11.508643E-12
1.557786E+3,	4.808572E-12
1.557790E+3,	9.727687E-12
1.557794E+3,	3.489538E-12
1.557798E+3,	0.000000E+0
1.557802E+3,	0.000000E+0
1.557806E+3,	24.144132E-12
1.557810E+3,	0.000000E+0
1.557814E+3,	6.260301E-12
1.557818E+3,	8.233533E-12
1.557822E+3,	0.000000E+0
1.557826E+3,	10.244801E-12
1.557830E+3,	3.928015E-12
1.557834E+3,	28.534022E-12
1.557838E+3,	7.792080E-12
1.557842E+3,	20.396810E-12
1.557846E+3,	0.000000E+0
1.557850E+3,	5.108786E-12
1.557854E+3,	3.928920E-12
1.557858E+3,	9.808584E-12
1.557862E+3,	0.000000E+0
1.557866E+3,	0.000000E+0
1.557870E+3,	0.000000E+0
1.557874E+3,	0.000000E+0
1.557878E+3,	0.000000E+0
1.557882E+3,	11.803948E-12
1.557886E+3,	0.000000E+0
1.557890E+3,	0.000000E+0
1.557894E+3,	0.000000E+0
1.557898E+3,	0.000000E+0
1.557902E+3,	0.000000E+0
1.557906E+3,	706.410030E-15
1.557910E+3,	1.242638E-12
1.557914E+3,	10.094237E-12
1.557918E+3,	0.000000E+0
1.557922E+3,	0.000000E+0
1.557926E+3,	0.000000E+0
1.557930E+3,	0.000000E+0
1.557934E+3,	0.000000E+0
1.557938E+3,	0.000000E+0
1.557942E+3,	0.000000E+0
1.557946E+3,	291.885641E-15
1.557950E+3,	0.000000E+0
1.557954E+3,	0.000000E+0
1.557958E+3,	0.000000E+0
1.557962E+3,	3.119298E-12
1.557966E+3,	2.065445E-12
1.557970E+3,	0.000000E+0
1.557974E+3,	0.000000E+0
1.557978E+3,	5.136188E-12
1.557982E+3,	15.358525E-12
1.557986E+3,	0.000000E+0
1.557990E+3,	0.000000E+0
1.557994E+3,	8.056133E-12
1.557998E+3,	1.144078E-12
1.558002E+3,	0.000000E+0
1.558006E+3,	0.000000E+0
1.558010E+3,	8.858450E-12
1.558014E+3,	0.000000E+0
1.558018E+3,	11.701758E-12
1.558022E+3,	843.147835E-15
1.558026E+3,	7.324407E-12
1.558030E+3,	0.000000E+0
1.558034E+3,	0.000000E+0
1.558038E+3,	0.000000E+0
1.558042E+3,	9.831958E-12
1.558046E+3,	4.616321E-12
1.558050E+3,	0.000000E+0
1.558054E+3,	0.000000E+0
1.558058E+3,	0.000000E+0
1.558062E+3,	0.000000E+0
1.558066E+3,	12.554751E-12
1.558070E+3,	4.384228E-12
1.558074E+3,	160.013118E-15
1.558078E+3,	18.319375E-12
1.558082E+3,	0.000000E+0
1.558086E+3,	24.109804E-12
1.558090E+3,	18.647814E-12
1.558094E+3,	0.000000E+0
1.558098E+3,	34.460180E-12
1.558102E+3,	832.239059E-15
1.558106E+3,	3.289231E-12
1.558110E+3,	0.000000E+0
1.558114E+3,	0.000000E+0
1.558118E+3,	0.000000E+0
1.558122E+3,	0.000000E+0
1.558126E+3,	6.550320E-12
1.558130E+3,	0.000000E+0
1.558134E+3,	2.360007E-12
1.558138E+3,	15.115710E-12
1.558142E+3,	8.886835E-12
1.558146E+3,	11.273621E-12
1.558150E+3,	0.000000E+0
1.558154E+3,	0.000000E+0
1.558158E+3,	0.000000E+0
1.558162E+3,	0.000000E+0
1.558166E+3,	0.000000E+0
1.558170E+3,	6.450498E-12
1.558174E+3,	20.385283E-12
1.558178E+3,	0.000000E+0
1.558182E+3,	0.000000E+0
1.558186E+3,	5.883225E-12
1.558190E+3,	597.139669E-15
1.558194E+3,	0.000000E+0
1.558198E+3,	0.000000E+0
1.558202E+3,	1.574467E-12
1.558206E+3,	0.000000E+0
1.558210E+3,	3.632413E-12
1.558214E+3,	0.000000E+0
1.558218E+3,	0.000000E+0
1.558222E+3,	25.151295E-12
1.558226E+3,	0.000000E+0
1.558230E+3,	0.000000E+0
1.558234E+3,	1.047309E-12
1.558238E+3,	0.000000E+0
1.558242E+3,	21.483491E-12
1.558246E+3,	0.000000E+0
1.558250E+3,	0.000000E+0
1.558254E+3,	0.000000E+0
1.558258E+3,	15.478693E-12
1.558262E+3,	16.812205E-12
1.558266E+3,	8.110321E-12
1.558270E+3,	0.000000E+0
1.558274E+3,	7.639893E-12
1.558278E+3,	651.072628E-15
1.558282E+3,	201.390162E-15
1.558286E+3,	0.000000E+0
1.558290E+3,	7.485570E-12
1.558294E+3,	1.862814E-12
1.558298E+3,	3.579264E-12
1.558302E+3,	10.886446E-12
1.558306E+3,	4.567635E-12
1.558310E+3,	18.701061E-12
1.558314E+3,	1.957214E-12
1.558318E+3,	2.199725E-12
1.558322E+3,	10.556832E-12
1.558326E+3,	15.172160E-12
1.558330E+3,	4.220333E-12
1.558334E+3,	18.810932E-12
1.558338E+3,	3.269919E-12
1.558342E+3,	0.000000E+0
1.558346E+3,	0.000000E+0
1.558350E+3,	0.000000E+0
1.558354E+3,	26.508767E-12
1.558358E+3,	0.000000E+0
1.558362E+3,	3.072537E-12
1.558366E+3,	13.076045E-12
1.558370E+3,	0.000000E+0
1.558374E+3,	5.908953E-12
1.558378E+3,	0.000000E+0
1.558382E+3,	0.000000E+0
1.558386E+3,	0.000000E+0
1.558390E+3,	0.000000E+0
1.558394E+3,	6.993563E-12
1.558398E+3,	3.390989E-12
1.558402E+3,	0.000000E+0
1.558406E+3,	0.000000E+0
1.558410E+3,	1.552415E-12
1.558414E+3,	0.000000E+0
1.558418E+3,	6.194118E-12
1.558422E+3,	16.352284E-12
1.558426E+3,	0.000000E+0
1.558430E+3,	0.000000E+0
1.558434E+3,	5.276520E-12
1.558438E+3,	0.000000E+0
1.558442E+3,	1.785506E-12
1.558446E+3,	17.999326E-12
1.558450E+3,	1.934695E-12
1.558454E+3,	5.537016E-12
1.558458E+3,	4.194203E-12
1.558462E+3,	0.000000E+0
1.558466E+3,	0.000000E+0
1.558470E+3,	0.000000E+0
1.558474E+3,	0.000000E+0
1.558478E+3,	6.376017E-12
1.558482E+3,	5.736348E-12
1.558486E+3,	0.000000E+0
1.558490E+3,	29.774176E-12
1.558494E+3,	14.887175E-12
1.558498E+3,	13.250198E-12
1.558502E+3,	1.744538E-12
1.558506E+3,	14.963763E-12
1.558510E+3,	8.063097E-12
1.558514E+3,	16.522641E-12
1.558518E+3,	19.918109E-12
1.558522E+3,	5.680951E-12
1.558526E+3,	14.652674E-12
1.558530E+3,	9.458155E-12
1.558534E+3,	3.744326E-12
1.558538E+3,	11.336434E-12
1.558542E+3,	12.799402E-12
1.558546E+3,	22.191930E-12
1.558550E+3,	9.521046E-12
1.558554E+3,	37.279618E-12
1.558558E+3,	45.266456E-12
1.558562E+3,	42.953603E-12
1.558566E+3,	37.999932E-12
1.558570E+3,	76.571760E-12
1.558574E+3,	102.809455E-12
1.558578E+3,	108.106332E-12
1.558582E+3,	121.159156E-12
1.558586E+3,	113.966889E-12
1.558590E+3,	119.644246E-12
1.558594E+3,	146.580415E-12
1.558598E+3,	126.366928E-12
1.558602E+3,	131.207690E-12
1.558606E+3,	137.367252E-12
1.558610E+3,	105.270859E-12
1.558614E+3,	111.338736E-12
1.558618E+3,	85.674382E-12
1.558622E+3,	107.001246E-12
1.558626E+3,	125.296732E-12
1.558630E+3,	142.109713E-12
1.558634E+3,	173.761221E-12
1.558638E+3,	248.707943E-12
1.558642E+3,	343.960461E-12
1.558646E+3,	403.021601E-12
1.558650E+3,	486.247930E-12
1.558654E+3,	560.377794E-12
1.558658E+3,	606.691840E-12
1.558662E+3,	663.445377E-12
1.558666E+3,	668.635630E-12
1.558670E+3,	692.332862E-12
1.558674E+3,	652.249386E-12
1.558678E+3,	642.728775E-12
1.558682E+3,	565.765487E-12
1.558686E+3,	532.417596E-12
1.558690E+3,	472.377278E-12
1.558694E+3,	403.534722E-12
1.558698E+3,	408.014808E-12
1.558702E+3,	420.645395E-12
1.558706E+3,	519.136113E-12
1.558710E+3,	681.431961E-12
1.558714E+3,	800.159007E-12
1.558718E+3,	1.069583E-9
1.558722E+3,	1.331021E-9
1.558726E+3,	1.567526E-9
1.558730E+3,	1.808476E-9
1.558734E+3,	2.109423E-9
1.558738E+3,	2.268310E-9
1.558742E+3,	2.383026E-9
1.558746E+3,	2.464730E-9
1.558750E+3,	2.485714E-9
1.558754E+3,	2.430981E-9
1.558758E+3,	2.317105E-9
1.558762E+3,	2.141687E-9
1.558766E+3,	1.940111E-9
1.558770E+3,	1.788200E-9
1.558774E+3,	1.627520E-9
1.558778E+3,	1.526054E-9
1.558782E+3,	1.480041E-9
1.558786E+3,	1.554586E-9
1.558790E+3,	1.788835E-9
1.558794E+3,	2.008918E-9
1.558798E+3,	2.400807E-9
1.558802E+3,	2.959036E-9
1.558806E+3,	3.548775E-9
1.558810E+3,	4.046654E-9
1.558814E+3,	4.711459E-9
1.558818E+3,	5.186603E-9
1.558822E+3,	5.547163E-9
1.558826E+3,	5.801269E-9
1.558830E+3,	5.953119E-9
1.558834E+3,	5.932759E-9
1.558838E+3,	5.728309E-9
1.558842E+3,	5.389909E-9
1.558846E+3,	4.955988E-9
1.558850E+3,	4.571597E-9
1.558854E+3,	4.179275E-9
1.558858E+3,	3.862078E-9
1.558862E+3,	3.712589E-9
1.558866E+3,	3.810655E-9
1.558870E+3,	4.228924E-9
1.558874E+3,	4.859755E-9
1.558878E+3,	5.587408E-9
1.558882E+3,	6.760162E-9
1.558886E+3,	7.915683E-9
1.558890E+3,	8.827816E-9
1.558894E+3,	9.733591E-9
1.558898E+3,	10.593351E-9
1.558902E+3,	11.096883E-9
1.558906E+3,	11.214065E-9
1.558910E+3,	10.981644E-9
1.558914E+3,	10.337101E-9
1.558918E+3,	9.601633E-9
1.558922E+3,	8.669171E-9
1.558926E+3,	7.553106E-9
1.558930E+3,	6.586173E-9
1.558934E+3,	6.029477E-9
1.558938E+3,	5.744246E-9
1.558942E+3,	6.017565E-9
1.558946E+3,	6.639723E-9
1.558950E+3,	7.703808E-9
1.558954E+3,	9.355402E-9
1.558958E+3,	11.192402E-9
1.558962E+3,	12.715818E-9
1.558966E+3,	14.581025E-9
1.558970E+3,	15.937610E-9
1.558974E+3,	16.623166E-9
1.558978E+3,	16.945119E-9
1.558982E+3,	16.666115E-9
1.558986E+3,	15.938618E-9
1.558990E+3,	14.698029E-9
1.558994E+3,	12.840641E-9
1.558998E+3,	10.936063E-9
1.559002E+3,	9.419127E-9
1.559006E+3,	7.672513E-9
1.559010E+3,	6.549048E-9
1.559014E+3,	6.098136E-9
1.559018E+3,	6.321619E-9
1.559022E+3,	7.258551E-9
1.559026E+3,	8.519453E-9
1.559030E+3,	10.190118E-9
1.559034E+3,	12.419673E-9
1.559038E+3,	14.432261E-9
1.559042E+3,	16.102958E-9
1.559046E+3,	17.794407E-9
1.559050E+3,	18.749149E-9
1.559054E+3,	18.989070E-9
1.559058E+3,	18.653264E-9
1.559062E+3,	17.758143E-9
1.559066E+3,	16.540633E-9
1.559070E+3,	14.869344E-9
1.559074E+3,	12.693827E-9
1.559078E+3,	10.646103E-9
1.559082E+3,	9.125494E-9
1.559086E+3,	7.369608E-9
1.559090E+3,	6.206417E-9
1.559094E+3,	5.664951E-9
1.559098E+3,	5.685450E-9
1.559102E+3,	6.350912E-9
1.559106E+3,	7.388873E-9
1.559110E+3,	8.884265E-9
1.559114E+3,	10.867995E-9
1.559118E+3,	12.818618E-9
1.559122E+3,	14.428832E-9
1.559126E+3,	16.360205E-9
1.559130E+3,	17.761393E-9
1.559134E+3,	18.416720E-9
1.559138E+3,	18.727653E-9
1.559142E+3,	18.515366E-9
1.559146E+3,	17.877112E-9
1.559150E+3,	16.781178E-9
1.559154E+3,	14.855037E-9
1.559158E+3,	12.947195E-9
1.559162E+3,	11.364770E-9
1.559166E+3,	9.432994E-9
1.559170E+3,	7.888040E-9
1.559174E+3,	6.828153E-9
1.559178E+3,	6.020753E-9
1.559182E+3,	5.971366E-9
1.559186E+3,	6.419469E-9
1.559190E+3,	7.360238E-9
1.559194E+3,	9.111082E-9
1.559198E+3,	11.047726E-9
1.559202E+3,	12.814202E-9
1.559206E+3,	15.023578E-9
1.559210E+3,	16.733863E-9
1.559214E+3,	17.794231E-9
1.559218E+3,	18.560089E-9
1.559222E+3,	18.621899E-9
1.559226E+3,	18.171896E-9
1.559230E+3,	17.181315E-9
1.559234E+3,	15.428126E-9
1.559238E+3,	13.554011E-9
1.559242E+3,	11.953701E-9
1.559246E+3,	9.915250E-9
1.559250E+3,	8.373678E-9
1.559254E+3,	7.518288E-9
1.559258E+3,	7.091374E-9
1.559262E+3,	7.489425E-9
1.559266E+3,	8.424356E-9
1.559270E+3,	9.898693E-9
1.559274E+3,	12.025761E-9
1.559278E+3,	14.243200E-9
1.559282E+3,	16.110145E-9
1.559286E+3,	18.210330E-9
1.559290E+3,	19.521125E-9
1.559294E+3,	19.953495E-9
1.559298E+3,	19.774211E-9
1.559302E+3,	18.950763E-9
1.559306E+3,	17.788306E-9
1.559310E+3,	16.028102E-9
1.559314E+3,	13.610795E-9
1.559318E+3,	11.472713E-9
1.559322E+3,	10.029215E-9
1.559326E+3,	8.627879E-9
1.559330E+3,	7.943411E-9
1.559334E+3,	7.948579E-9
1.559338E+3,	8.826700E-9
1.559342E+3,	10.349997E-9
1.559346E+3,	11.997485E-9
1.559350E+3,	14.008415E-9
1.559354E+3,	16.407941E-9
1.559358E+3,	18.446534E-9
1.559362E+3,	19.844167E-9
1.559366E+3,	20.986794E-9
1.559370E+3,	21.337832E-9
1.559374E+3,	20.991570E-9
1.559378E+3,	19.746007E-9
1.559382E+3,	18.006953E-9
1.559386E+3,	16.398679E-9
1.559390E+3,	14.327399E-9
1.559394E+3,	11.821885E-9
1.559398E+3,	9.801525E-9
1.559402E+3,	8.554171E-9
1.559406E+3,	7.531591E-9
1.559410E+3,	7.218836E-9
1.559414E+3,	7.495896E-9
1.559418E+3,	8.545416E-9
1.559422E+3,	10.054834E-9
1.559426E+3,	11.531294E-9
1.559430E+3,	13.301297E-9
1.559434E+3,	15.394754E-9
1.559438E+3,	17.237805E-9
1.559442E+3,	18.517905E-9
1.559446E+3,	19.721973E-9
1.559450E+3,	20.225049E-9
1.559454E+3,	20.118742E-9
1.559458E+3,	19.434552E-9
1.559462E+3,	18.271211E-9
1.559466E+3,	16.976467E-9
1.559470E+3,	15.242920E-9
1.559474E+3,	12.872146E-9
1.559478E+3,	10.863665E-9
1.559482E+3,	9.349677E-9
1.559486E+3,	7.747082E-9
1.559490E+3,	6.852040E-9
1.559494E+3,	6.568327E-9
1.559498E+3,	6.938022E-9
1.559502E+3,	7.893259E-9
1.559506E+3,	9.210398E-9
1.559510E+3,	10.940902E-9
1.559514E+3,	13.175919E-9
1.559518E+3,	15.316199E-9
1.559522E+3,	16.946891E-9
1.559526E+3,	18.766300E-9
1.559530E+3,	19.885294E-9
1.559534E+3,	20.221547E-9
1.559538E+3,	19.872351E-9
1.559542E+3,	18.965361E-9
1.559546E+3,	17.735403E-9
1.559550E+3,	15.948808E-9
1.559554E+3,	13.449167E-9
1.559558E+3,	11.164892E-9
1.559562E+3,	9.548252E-9
1.559566E+3,	7.778348E-9
1.559570E+3,	6.816734E-9
1.559574E+3,	6.552458E-9
1.559578E+3,	7.028506E-9
1.559582E+3,	8.220124E-9
1.559586E+3,	9.758074E-9
1.559590E+3,	11.734291E-9
1.559594E+3,	14.197656E-9
1.559598E+3,	16.279292E-9
1.559602E+3,	17.726979E-9
1.559606E+3,	19.029707E-9
1.559610E+3,	19.453838E-9
1.559614E+3,	19.135873E-9
1.559618E+3,	18.009638E-9
1.559622E+3,	16.428073E-9
1.559626E+3,	14.696756E-9
1.559630E+3,	12.587630E-9
1.559634E+3,	10.223183E-9
1.559638E+3,	8.436272E-9
1.559642E+3,	7.371500E-9
1.559646E+3,	6.719902E-9
1.559650E+3,	6.851769E-9
1.559654E+3,	7.578167E-9
1.559658E+3,	9.240024E-9
1.559662E+3,	11.338757E-9
1.559666E+3,	13.284459E-9
1.559670E+3,	15.354911E-9
1.559674E+3,	17.379282E-9
1.559678E+3,	18.761276E-9
1.559682E+3,	19.383513E-9
1.559686E+3,	19.361486E-9
1.559690E+3,	18.600633E-9
1.559694E+3,	17.425684E-9
1.559698E+3,	15.484632E-9
1.559702E+3,	13.480274E-9
1.559706E+3,	11.772039E-9
1.559710E+3,	9.934099E-9
1.559714E+3,	8.175656E-9
1.559718E+3,	7.095800E-9
1.559722E+3,	6.803308E-9
1.559726E+3,	7.054048E-9
1.559730E+3,	7.912138E-9
1.559734E+3,	9.055824E-9
1.559738E+3,	11.024167E-9
1.559742E+3,	13.037355E-9
1.559746E+3,	14.709710E-9
1.559750E+3,	16.361586E-9
1.559754E+3,	17.935610E-9
1.559758E+3,	18.788048E-9
1.559762E+3,	19.024023E-9
1.559766E+3,	18.696106E-9
1.559770E+3,	17.791305E-9
1.559774E+3,	16.613674E-9
1.559778E+3,	14.755421E-9
1.559782E+3,	12.907221E-9
1.559786E+3,	11.366570E-9
1.559790E+3,	9.762137E-9
1.559794E+3,	8.151741E-9
1.559798E+3,	7.044289E-9
1.559802E+3,	6.607169E-9
1.559806E+3,	6.631142E-9
1.559810E+3,	7.234418E-9
1.559814E+3,	8.121992E-9
1.559818E+3,	9.903613E-9
1.559822E+3,	11.894286E-9
1.559826E+3,	13.734297E-9
1.559830E+3,	15.597164E-9
1.559834E+3,	17.535123E-9
1.559838E+3,	18.965944E-9
1.559842E+3,	19.760542E-9
1.559846E+3,	20.213168E-9
1.559850E+3,	19.917145E-9
1.559854E+3,	19.110550E-9
1.559858E+3,	17.535738E-9
1.559862E+3,	15.728019E-9
1.559866E+3,	13.980045E-9
1.559870E+3,	11.989074E-9
1.559874E+3,	9.854051E-9
1.559878E+3,	8.178652E-9
1.559882E+3,	7.228894E-9
1.559886E+3,	6.679402E-9
1.559890E+3,	6.905817E-9
1.559894E+3,	7.634128E-9
1.559898E+3,	9.348896E-9
1.559902E+3,	11.431302E-9
1.559906E+3,	13.349081E-9
1.559910E+3,	15.465000E-9
1.559914E+3,	17.789554E-9
1.559918E+3,	19.466451E-9
1.559922E+3,	20.421762E-9
1.559926E+3,	21.000706E-9
1.559930E+3,	20.711531E-9
1.559934E+3,	19.836101E-9
1.559938E+3,	18.020898E-9
1.559942E+3,	15.983002E-9
1.559946E+3,	14.134016E-9
1.559950E+3,	12.007771E-9
1.559954E+3,	9.661939E-9
1.559958E+3,	8.014292E-9
1.559962E+3,	7.201989E-9
1.559966E+3,	6.933448E-9
1.559970E+3,	7.345713E-9
1.559974E+3,	8.286577E-9
1.559978E+3,	10.178161E-9
1.559982E+3,	12.345386E-9
1.559986E+3,	14.105116E-9
1.559990E+3,	15.937090E-9
1.559994E+3,	17.710881E-9
1.559998E+3,	18.755765E-9
1.560002E+3,	19.089873E-9
1.560006E+3,	18.741784E-9
1.560010E+3,	17.720137E-9
1.560014E+3,	16.362443E-9
1.560018E+3,	14.194770E-9
1.560022E+3,	12.160271E-9
1.560026E+3,	10.531425E-9
1.560030E+3,	8.895569E-9
1.560034E+3,	7.346657E-9
1.560038E+3,	6.546551E-9
1.560042E+3,	6.440898E-9
1.560046E+3,	7.019712E-9
1.560050E+3,	8.038914E-9
1.560054E+3,	9.306465E-9
1.560058E+3,	11.290005E-9
1.560062E+3,	13.288310E-9
1.560066E+3,	14.770083E-9
1.560070E+3,	16.287040E-9
1.560074E+3,	17.223306E-9
1.560078E+3,	17.517724E-9
1.560082E+3,	17.293346E-9
1.560086E+3,	16.318534E-9
1.560090E+3,	14.967240E-9
1.560094E+3,	13.638844E-9
1.560098E+3,	11.668994E-9
1.560102E+3,	9.908249E-9
1.560106E+3,	8.608844E-9
1.560110E+3,	7.199531E-9
1.560114E+3,	6.254218E-9
1.560118E+3,	5.896798E-9
1.560122E+3,	6.083112E-9
1.560126E+3,	6.799576E-9
1.560130E+3,	7.675508E-9
1.560134E+3,	9.356366E-9
1.560138E+3,	11.163334E-9
1.560142E+3,	12.794183E-9
1.560146E+3,	14.502095E-9
1.560150E+3,	16.196106E-9
1.560154E+3,	17.348958E-9
1.560158E+3,	17.816611E-9
1.560162E+3,	17.911489E-9
1.560166E+3,	17.396431E-9
1.560170E+3,	16.430759E-9
1.560174E+3,	14.672165E-9
1.560178E+3,	12.900660E-9
1.560182E+3,	11.386759E-9
1.560186E+3,	9.390916E-9
1.560190E+3,	7.771712E-9
1.560194E+3,	6.701847E-9
1.560198E+3,	5.962640E-9
1.560202E+3,	5.806446E-9
1.560206E+3,	6.321803E-9
1.560210E+3,	7.241294E-9
1.560214E+3,	9.025288E-9
1.560218E+3,	11.169923E-9
1.560222E+3,	13.172897E-9
1.560226E+3,	15.667508E-9
1.560230E+3,	17.665917E-9
1.560234E+3,	18.933350E-9
1.560238E+3,	19.936870E-9
1.560242E+3,	20.164775E-9
1.560246E+3,	19.787203E-9
1.560250E+3,	18.674030E-9
1.560254E+3,	16.706562E-9
1.560258E+3,	14.498544E-9
1.560262E+3,	12.635781E-9
1.560266E+3,	10.306082E-9
1.560270E+3,	8.415620E-9
1.560274E+3,	7.247553E-9
1.560278E+3,	6.523275E-9
1.560282E+3,	6.622817E-9
1.560286E+3,	7.281612E-9
1.560290E+3,	8.879664E-9
1.560294E+3,	10.705163E-9
1.560298E+3,	12.451378E-9
1.560302E+3,	14.446107E-9
1.560306E+3,	16.658927E-9
1.560310E+3,	18.252255E-9
1.560314E+3,	18.999180E-9
1.560318E+3,	19.165716E-9
1.560322E+3,	18.640570E-9
1.560326E+3,	17.642626E-9
1.560330E+3,	15.657317E-9
1.560334E+3,	13.473394E-9
1.560338E+3,	11.669845E-9
1.560342E+3,	9.498871E-9
1.560346E+3,	7.889480E-9
1.560350E+3,	6.933155E-9
1.560354E+3,	6.372348E-9
1.560358E+3,	6.480455E-9
1.560362E+3,	7.195522E-9
1.560366E+3,	8.257234E-9
1.560370E+3,	10.002858E-9
1.560374E+3,	11.711817E-9
1.560378E+3,	13.159245E-9
1.560382E+3,	14.909924E-9
1.560386E+3,	16.059965E-9
1.560390E+3,	16.496771E-9
1.560394E+3,	16.430660E-9
1.560398E+3,	15.816088E-9
1.560402E+3,	14.931744E-9
1.560406E+3,	13.600840E-9
1.560410E+3,	11.671811E-9
1.560414E+3,	9.893564E-9
1.560418E+3,	8.592007E-9
1.560422E+3,	7.173586E-9
1.560426E+3,	6.223574E-9
1.560430E+3,	5.818510E-9
1.560434E+3,	5.850963E-9
1.560438E+3,	6.382519E-9
1.560442E+3,	7.173090E-9
1.560446E+3,	8.644163E-9
1.560450E+3,	10.195397E-9
1.560454E+3,	11.452753E-9
1.560458E+3,	12.775502E-9
1.560462E+3,	14.244214E-9
1.560466E+3,	15.278519E-9
1.560470E+3,	15.769690E-9
1.560474E+3,	15.823465E-9
1.560478E+3,	15.408168E-9
1.560482E+3,	14.674538E-9
1.560486E+3,	13.238663E-9
1.560490E+3,	11.700218E-9
1.560494E+3,	10.292734E-9
1.560498E+3,	8.544525E-9
1.560502E+3,	7.099314E-9
1.560506E+3,	6.190768E-9
1.560510E+3,	5.507609E-9
1.560514E+3,	5.247084E-9
1.560518E+3,	5.605453E-9
1.560522E+3,	6.378673E-9
1.560526E+3,	7.925686E-9
1.560530E+3,	9.656078E-9
1.560534E+3,	11.181355E-9
1.560538E+3,	13.405050E-9
1.560542E+3,	15.376261E-9
1.560546E+3,	16.655404E-9
1.560550E+3,	17.798297E-9
1.560554E+3,	18.216818E-9
1.560558E+3,	18.072756E-9
1.560562E+3,	17.352703E-9
1.560566E+3,	15.840566E-9
1.560570E+3,	13.927016E-9
1.560574E+3,	12.154307E-9
1.560578E+3,	9.863739E-9
1.560582E+3,	8.086385E-9
1.560586E+3,	6.966391E-9
1.560590E+3,	6.074494E-9
1.560594E+3,	5.900855E-9
1.560598E+3,	6.318671E-9
1.560602E+3,	7.608606E-9
1.560606E+3,	9.284285E-9
1.560610E+3,	10.931913E-9
1.560614E+3,	12.838596E-9
1.560618E+3,	15.092978E-9
1.560622E+3,	16.931542E-9
1.560626E+3,	17.938278E-9
1.560630E+3,	18.521291E-9
1.560634E+3,	18.369639E-9
1.560638E+3,	17.688646E-9
1.560642E+3,	16.159559E-9
1.560646E+3,	14.292346E-9
1.560650E+3,	12.493272E-9
1.560654E+3,	10.149137E-9
1.560658E+3,	8.254755E-9
1.560662E+3,	7.056858E-9
1.560666E+3,	6.192585E-9
1.560670E+3,	5.920515E-9
1.560674E+3,	6.274544E-9
1.560678E+3,	7.075147E-9
1.560682E+3,	8.675697E-9
1.560686E+3,	10.413109E-9
1.560690E+3,	11.889283E-9
1.560694E+3,	13.786432E-9
1.560698E+3,	15.269119E-9
1.560702E+3,	16.162764E-9
1.560706E+3,	16.762076E-9
1.560710E+3,	16.573658E-9
1.560714E+3,	15.990541E-9
1.560718E+3,	14.975782E-9
1.560722E+3,	13.373169E-9
1.560726E+3,	11.558269E-9
1.560730E+3,	10.019501E-9
1.560734E+3,	8.246214E-9
1.560738E+3,	6.956962E-9
1.560742E+3,	6.235123E-9
1.560746E+3,	5.783352E-9
1.560750E+3,	5.876209E-9
1.560754E+3,	6.316414E-9
1.560758E+3,	7.340144E-9
1.560762E+3,	8.556561E-9
1.560766E+3,	9.700152E-9
1.560770E+3,	10.953454E-9
1.560774E+3,	12.241358E-9
1.560778E+3,	13.236182E-9
1.560782E+3,	13.843667E-9
1.560786E+3,	14.188252E-9
1.560790E+3,	14.075276E-9
1.560794E+3,	13.662820E-9
1.560798E+3,	12.782401E-9
1.560802E+3,	11.669938E-9
1.560806E+3,	10.549959E-9
1.560810E+3,	9.035618E-9
1.560814E+3,	7.753590E-9
1.560818E+3,	6.858847E-9
1.560822E+3,	6.110460E-9
1.560826E+3,	5.665553E-9
1.560830E+3,	5.615016E-9
1.560834E+3,	5.928965E-9
1.560838E+3,	6.845593E-9
1.560842E+3,	8.100448E-9
1.560846E+3,	9.341592E-9
1.560850E+3,	10.996465E-9
1.560854E+3,	12.557658E-9
1.560858E+3,	13.811572E-9
1.560862E+3,	15.212731E-9
1.560866E+3,	16.103533E-9
1.560870E+3,	16.399568E-9
1.560874E+3,	16.296414E-9
1.560878E+3,	15.473538E-9
1.560882E+3,	14.315521E-9
1.560886E+3,	12.992179E-9
1.560890E+3,	10.862952E-9
1.560894E+3,	8.952884E-9
1.560898E+3,	7.621886E-9
1.560902E+3,	6.280276E-9
1.560906E+3,	5.582016E-9
1.560910E+3,	5.424324E-9
1.560914E+3,	5.907759E-9
1.560918E+3,	6.949055E-9
1.560922E+3,	8.274475E-9
1.560926E+3,	10.036951E-9
1.560930E+3,	12.302319E-9
1.560934E+3,	14.378303E-9
1.560938E+3,	15.918151E-9
1.560942E+3,	17.620496E-9
1.560946E+3,	18.553742E-9
1.560950E+3,	18.706712E-9
1.560954E+3,	18.134235E-9
1.560958E+3,	16.931116E-9
1.560962E+3,	15.507501E-9
1.560966E+3,	13.261621E-9
1.560970E+3,	10.995012E-9
1.560974E+3,	9.196473E-9
1.560978E+3,	7.621306E-9
1.560982E+3,	6.381890E-9
1.560986E+3,	5.886739E-9
1.560990E+3,	6.013476E-9
1.560994E+3,	6.919342E-9
1.560998E+3,	8.302302E-9
1.561002E+3,	9.745880E-9
1.561006E+3,	11.870749E-9
1.561010E+3,	13.723892E-9
1.561014E+3,	15.070175E-9
1.561018E+3,	16.404387E-9
1.561022E+3,	17.081169E-9
1.561026E+3,	17.164903E-9
1.561030E+3,	16.473009E-9
1.561034E+3,	15.202133E-9
1.561038E+3,	13.882125E-9
1.561042E+3,	11.935606E-9
1.561046E+3,	10.019220E-9
1.561050E+3,	8.415172E-9
1.561054E+3,	6.875977E-9
1.561058E+3,	5.636599E-9
1.561062E+3,	5.035272E-9
1.561066E+3,	5.029311E-9
1.561070E+3,	5.654792E-9
1.561074E+3,	6.637801E-9
1.561078E+3,	7.724630E-9
1.561082E+3,	9.333710E-9
1.561086E+3,	10.829591E-9
1.561090E+3,	11.932473E-9
1.561094E+3,	13.104898E-9
1.561098E+3,	13.816311E-9
1.561102E+3,	14.102057E-9
1.561106E+3,	13.895386E-9
1.561110E+3,	13.238826E-9
1.561114E+3,	12.401606E-9
1.561118E+3,	11.068312E-9
1.561122E+3,	9.686162E-9
1.561126E+3,	8.539963E-9
1.561130E+3,	7.322136E-9
1.561134E+3,	6.095776E-9
1.561138E+3,	5.327468E-9
1.561142E+3,	5.038087E-9
1.561146E+3,	5.031068E-9
1.561150E+3,	5.438232E-9
1.561154E+3,	6.089903E-9
1.561158E+3,	7.331923E-9
1.561162E+3,	8.651476E-9
1.561166E+3,	9.783890E-9
1.561170E+3,	11.265119E-9
1.561174E+3,	12.462994E-9
1.561178E+3,	13.277509E-9
1.561182E+3,	13.942434E-9
1.561186E+3,	14.094491E-9
1.561190E+3,	13.807213E-9
1.561194E+3,	12.966391E-9
1.561198E+3,	11.881083E-9
1.561202E+3,	10.836629E-9
1.561206E+3,	9.484083E-9
1.561210E+3,	7.751574E-9
1.561214E+3,	6.491349E-9
1.561218E+3,	5.767176E-9
1.561222E+3,	5.388107E-9
1.561226E+3,	5.517493E-9
1.561230E+3,	6.093049E-9
1.561234E+3,	7.394374E-9
1.561238E+3,	9.109154E-9
1.561242E+3,	10.690837E-9
1.561246E+3,	12.915274E-9
1.561250E+3,	14.809312E-9
1.561254E+3,	16.114616E-9
1.561258E+3,	17.399658E-9
1.561262E+3,	17.952023E-9
1.561266E+3,	17.868932E-9
1.561270E+3,	16.980154E-9
1.561274E+3,	15.447949E-9
1.561278E+3,	13.879491E-9
1.561282E+3,	12.104505E-9
1.561286E+3,	10.001220E-9
1.561290E+3,	8.140808E-9
1.561294E+3,	6.905595E-9
1.561298E+3,	5.940713E-9
1.561302E+3,	5.740440E-9
1.561306E+3,	6.131874E-9
1.561310E+3,	7.248339E-9
1.561314E+3,	8.755511E-9
1.561318E+3,	10.328235E-9
1.561322E+3,	12.609672E-9
1.561326E+3,	14.557505E-9
1.561330E+3,	15.788273E-9
1.561334E+3,	16.918408E-9
1.561338E+3,	17.367884E-9
1.561342E+3,	17.211180E-9
1.561346E+3,	16.292217E-9
1.561350E+3,	14.783832E-9
1.561354E+3,	13.188377E-9
1.561358E+3,	11.356160E-9
1.561362E+3,	9.207656E-9
1.561366E+3,	7.381335E-9
1.561370E+3,	6.128536E-9
1.561374E+3,	4.972090E-9
1.561378E+3,	4.552832E-9
1.561382E+3,	4.660555E-9
1.561386E+3,	5.330759E-9
1.561390E+3,	6.266347E-9
1.561394E+3,	7.276171E-9
1.561398E+3,	8.772146E-9
1.561402E+3,	9.991330E-9
1.561406E+3,	10.888332E-9
1.561410E+3,	11.694356E-9
1.561414E+3,	12.064144E-9
1.561418E+3,	12.050578E-9
1.561422E+3,	11.606452E-9
1.561426E+3,	10.757082E-9
1.561430E+3,	9.836082E-9
1.561434E+3,	8.663809E-9
1.561438E+3,	7.215490E-9
1.561442E+3,	5.966452E-9
1.561446E+3,	5.030752E-9
1.561450E+3,	4.055294E-9
1.561454E+3,	3.440426E-9
1.561458E+3,	3.216338E-9
1.561462E+3,	3.271101E-9
1.561466E+3,	3.610819E-9
1.561470E+3,	4.103800E-9
1.561474E+3,	4.918259E-9
1.561478E+3,	5.771033E-9
1.561482E+3,	6.473343E-9
1.561486E+3,	7.299368E-9
1.561490E+3,	7.905633E-9
1.561494E+3,	8.224730E-9
1.561498E+3,	8.427522E-9
1.561502E+3,	8.331250E-9
1.561506E+3,	8.085365E-9
1.561510E+3,	7.599970E-9
1.561514E+3,	6.779880E-9
1.561518E+3,	5.946651E-9
1.561522E+3,	5.262253E-9
1.561526E+3,	4.286878E-9
1.561530E+3,	3.486818E-9
1.561534E+3,	2.931290E-9
1.561538E+3,	2.499994E-9
1.561542E+3,	2.383161E-9
1.561546E+3,	2.503233E-9
1.561550E+3,	2.931663E-9
1.561554E+3,	3.515894E-9
1.561558E+3,	4.133853E-9
1.561562E+3,	4.969469E-9
1.561566E+3,	5.700699E-9
1.561570E+3,	6.195140E-9
1.561574E+3,	6.691115E-9
1.561578E+3,	6.884390E-9
1.561582E+3,	6.863713E-9
1.561586E+3,	6.578772E-9
1.561590E+3,	6.012281E-9
1.561594E+3,	5.337525E-9
1.561598E+3,	4.678366E-9
1.561602E+3,	3.802067E-9
1.561606E+3,	3.042558E-9
1.561610E+3,	2.516842E-9
1.561614E+3,	2.047000E-9
1.561618E+3,	1.867792E-9
1.561622E+3,	1.882481E-9
1.561626E+3,	2.137123E-9
1.561630E+3,	2.539890E-9
1.561634E+3,	2.891449E-9
1.561638E+3,	3.435481E-9
1.561642E+3,	3.913897E-9
1.561646E+3,	4.190929E-9
1.561650E+3,	4.386727E-9
1.561654E+3,	4.451976E-9
1.561658E+3,	4.331196E-9
1.561662E+3,	4.094081E-9
1.561666E+3,	3.643881E-9
1.561670E+3,	3.093701E-9
1.561674E+3,	2.656006E-9
1.561678E+3,	2.057209E-9
1.561682E+3,	1.622524E-9
1.561686E+3,	1.296842E-9
1.561690E+3,	1.001813E-9
1.561694E+3,	828.301582E-12
1.561698E+3,	818.004173E-12
1.561702E+3,	874.419882E-12
1.561706E+3,	994.950468E-12
1.561710E+3,	1.104083E-9
1.561714E+3,	1.258631E-9
1.561718E+3,	1.407664E-9
1.561722E+3,	1.483345E-9
1.561726E+3,	1.527290E-9
1.561730E+3,	1.536627E-9
1.561734E+3,	1.494252E-9
1.561738E+3,	1.412392E-9
1.561742E+3,	1.227414E-9
1.561746E+3,	1.086622E-9
1.561750E+3,	910.236112E-12
1.561754E+3,	717.248632E-12
1.561758E+3,	560.455062E-12
1.561762E+3,	442.500945E-12
1.561766E+3,	359.981489E-12
1.561770E+3,	304.239473E-12
1.561774E+3,	262.544854E-12
1.561778E+3,	216.867997E-12
1.561782E+3,	229.879312E-12
1.561786E+3,	254.810192E-12
1.561790E+3,	251.040192E-12
1.561794E+3,	278.681171E-12
1.561798E+3,	272.519403E-12
1.561802E+3,	300.157284E-12
1.561806E+3,	287.591668E-12
1.561810E+3,	291.926388E-12
1.561814E+3,	259.628988E-12
1.561818E+3,	280.987413E-12
1.561822E+3,	241.035850E-12
1.561826E+3,	212.733107E-12
1.561830E+3,	196.025460E-12
1.561834E+3,	174.579422E-12
1.561838E+3,	131.184475E-12
1.561842E+3,	108.637640E-12
1.561846E+3,	54.453661E-12
1.561850E+3,	72.162209E-12
1.561854E+3,	50.519344E-12
1.561858E+3,	50.848774E-12
1.561862E+3,	44.721357E-12
1.561866E+3,	28.836112E-12
1.561870E+3,	42.302676E-12
1.561874E+3,	41.257330E-12
1.561878E+3,	40.339624E-12
1.561882E+3,	49.812097E-12
1.561886E+3,	25.836864E-12
1.561890E+3,	68.101602E-12
1.561894E+3,	54.929445E-12
1.561898E+3,	58.532454E-12
1.561902E+3,	43.689359E-12
1.561906E+3,	11.607161E-12
1.561910E+3,	14.340702E-12
1.561914E+3,	37.058064E-12
1.561918E+3,	9.992455E-12
1.561922E+3,	35.142683E-12
1.561926E+3,	22.639654E-12
1.561930E+3,	0.000000E+0
1.561934E+3,	0.000000E+0
1.561938E+3,	4.720091E-12
1.561942E+3,	0.000000E+0
1.561946E+3,	0.000000E+0
1.561950E+3,	4.566693E-12
1.561954E+3,	402.605437E-15
1.561958E+3,	7.806826E-12
1.561962E+3,	0.000000E+0
1.561966E+3,	24.418091E-12
1.561970E+3,	3.855246E-12
1.561974E+3,	0.000000E+0
1.561978E+3,	2.501024E-12
1.561982E+3,	4.069064E-12
1.561986E+3,	0.000000E+0
1.561990E+3,	8.005841E-12
1.561994E+3,	0.000000E+0
1.561998E+3,	8.101401E-12
1.562002E+3,	0.000000E+0
1.562006E+3,	2.341236E-12
1.562010E+3,	733.178447E-15
1.562014E+3,	0.000000E+0
1.562018E+3,	0.000000E+0
1.562022E+3,	0.000000E+0
1.562026E+3,	0.000000E+0
1.562030E+3,	0.000000E+0
1.562034E+3,	0.000000E+0
1.562038E+3,	8.915707E-12
1.562042E+3,	0.000000E+0
1.562046E+3,	0.000000E+0
1.562050E+3,	0.000000E+0
1.562054E+3,	0.000000E+0
1.562058E+3,	0.000000E+0
1.562062E+3,	0.000000E+0
1.562066E+3,	0.000000E+0
1.562070E+3,	0.000000E+0
1.562074E+3,	0.000000E+0
1.562078E+3,	0.000000E+0
1.562082E+3,	11.058661E-12
1.562086E+3,	4.956330E-12
1.562090E+3,	965.036736E-15
1.562094E+3,	19.064915E-12
1.562098E+3,	0.000000E+0
1.562102E+3,	0.000000E+0
1.562106E+3,	9.594100E-12
1.562110E+3,	0.000000E+0
1.562114E+3,	7.848117E-12
1.562118E+3,	5.961179E-12
1.562122E+3,	5.923896E-12
1.562126E+3,	0.000000E+0
1.562130E+3,	0.000000E+0
1.562134E+3,	20.497580E-12
1.562138E+3,	0.000000E+0
1.562142E+3,	0.000000E+0
1.562146E+3,	7.160919E-12
1.562150E+3,	7.543976E-12
1.562154E+3,	6.764177E-12
1.562158E+3,	0.000000E+0
1.562162E+3,	0.000000E+0
1.562166E+3,	0.000000E+0
1.562170E+3,	0.000000E+0
1.562174E+3,	3.682638E-12
1.562178E+3,	6.505248E-12
1.562182E+3,	0.000000E+0
1.562186E+3,	0.000000E+0
1.562190E+3,	0.000000E+0
1.562194E+3,	0.000000E+0
1.562198E+3,	20.754472E-12
1.562202E+3,	0.000000E+0
1.562206E+3,	0.000000E+0
1.562210E+3,	0.000000E+0
1.562214E+3,	0.000000E+0
1.562218E+3,	0.000000E+0
1.562222E+3,	5.133791E-12
1.562226E+3,	360.970226E-15
1.562230E+3,	6.645162E-12
1.562234E+3,	6.003975E-12
1.562238E+3,	3.033047E-12
1.562242E+3,	2.077465E-12
1.562246E+3,	0.000000E+0
1.562250E+3,	0.000000E+0
1.562254E+3,	15.814480E-12
1.562258E+3,	0.000000E+0
1.562262E+3,	3.694035E-12
1.562266E+3,	6.083359E-12
1.562270E+3,	0.000000E+0
1.562274E+3,	0.000000E+0
1.562278E+3,	0.000000E+0
1.562282E+3,	0.000000E+0
1.562286E+3,	4.074689E-12
1.562290E+3,	6.842146E-12
1.562294E+3,	5.546200E-12
1.562298E+3,	0.000000E+0
1.562302E+3,	1.393852E-12
1.562306E+3,	6.333327E-12
1.562310E+3,	16.777008E-12
1.562314E+3,	0.000000E+0
1.562318E+3,	67.408792E-15
1.562322E+3,	3.020375E-12
1.562326E+3,	4.962040E-12
1.562330E+3,	22.257635E-12
1.562334E+3,	0.000000E+0
1.562338E+3,	0.000000E+0
1.562342E+3,	22.807741E-12
1.562346E+3,	6.341319E-12
1.562350E+3,	0.000000E+0
1.562354E+3,	0.000000E+0
1.562358E+3,	8.732811E-12
1.562362E+3,	0.000000E+0
1.562366E+3,	0.000000E+0
1.562370E+3,	12.084261E-12
1.562374E+3,	6.307551E-12
1.562378E+3,	12.393876E-12
1.562382E+3,	0.000000E+0
1.562386E+3,	11.245050E-12
1.562390E+3,	0.000000E+0
1.562394E+3,	933.671211E-15
1.562398E+3,	0.000000E+0
1.562402E+3,	17.704393E-12
1.562406E+3,	0.000000E+0
1.562410E+3,	0.000000E+0
1.562414E+3,	0.000000E+0
1.562418E+3,	0.000000E+0
1.562422E+3,	5.086569E-12
1.562426E+3,	3.628815E-12
1.562430E+3,	7.246558E-12
1.562434E+3,	0.000000E+0
1.562438E+3,	0.000000E+0
1.562442E+3,	8.054428E-12
1.562446E+3,	5.076936E-12
1.562450E+3,	0.000000E+0
1.562454E+3,	0.000000E+0
1.562458E+3,	0.000000E+0
1.562462E+3,	0.000000E+0
1.562466E+3,	3.551393E-12
1.562470E+3,	0.000000E+0
1.562474E+3,	16.703543E-12
1.562478E+3,	0.000000E+0
1.562482E+3,	0.000000E+0
1.562486E+3,	9.538427E-12
1.562490E+3,	6.803794E-12
1.562494E+3,	4.148842E-12
1.562498E+3,	0.000000E+0
1.562502E+3,	9.360113E-12
1.562506E+3,	0.000000E+0
1.562510E+3,	0.000000E+0
1.562514E+3,	0.000000E+0
1.562518E+3,	18.819957E-12
1.562522E+3,	0.000000E+0
1.562526E+3,	0.000000E+0
1.562530E+3,	0.000000E+0
1.562534E+3,	5.993930E-12
1.562538E+3,	0.000000E+0
1.562542E+3,	23.476530E-15
1.562546E+3,	5.015531E-12
1.562550E+3,	17.805028E-12
1.562554E+3,	4.375126E-12
1.562558E+3,	23.678479E-12
1.562562E+3,	3.010834E-12
1.562566E+3,	741.710305E-15
1.562570E+3,	6.093171E-12
1.562574E+3,	0.000000E+0
1.562578E+3,	4.161111E-12
1.562582E+3,	6.142105E-12
1.562586E+3,	12.182976E-12
1.562590E+3,	7.770919E-12
1.562594E+3,	18.105778E-12
1.562598E+3,	11.417496E-12
1.562602E+3,	2.178679E-12
1.562606E+3,	0.000000E+0
1.562610E+3,	0.000000E+0
1.562614E+3,	0.000000E+0
1.562618E+3,	0.000000E+0
1.562622E+3,	9.792789E-12
1.562626E+3,	0.000000E+0
1.562630E+3,	8.076745E-12
1.562634E+3,	1.188628E-12
1.562638E+3,	0.000000E+0
1.562642E+3,	588.550693E-15
1.562646E+3,	5.860060E-12
1.562650E+3,	0.000000E+0
