YOKOGAWA AQ6370D - S/N: 91S206859
#Date: 01/06/2023 Time: 14:30:24,	
A_WL(nm),	A_I(mW)
1.557650E+3,	1.452787E-12
1.557654E+3,	15.184527E-12
1.557658E+3,	19.491214E-12
1.557662E+3,	0.000000E+0
1.557666E+3,	12.829976E-12
1.557670E+3,	0.000000E+0
1.557674E+3,	0.000000E+0
1.557678E+3,	0.000000E+0
1.557682E+3,	12.359065E-12
1.557686E+3,	0.000000E+0
1.557690E+3,	7.169140E-12
1.557694E+3,	9.420587E-12
1.557698E+3,	18.861051E-12
1.557702E+3,	0.000000E+0
1.557706E+3,	0.000000E+0
1.557710E+3,	0.000000E+0
1.557714E+3,	11.929252E-12
1.557718E+3,	0.000000E+0
1.557722E+3,	0.000000E+0
1.557726E+3,	0.000000E+0
1.557730E+3,	0.000000E+0
1.557734E+3,	0.000000E+0
1.557738E+3,	4.315921E-12
1.557742E+3,	0.000000E+0
1.557746E+3,	3.124989E-12
1.557750E+3,	1.300756E-12
1.557754E+3,	0.000000E+0
1.557758E+3,	8.836710E-12
1.557762E+3,	12.682204E-12
1.557766E+3,	869.057644E-15
1.557770E+3,	24.648999E-15
1.557774E+3,	2.958397E-12
1.557778E+3,	11.268330E-12
1.557782E+3,	25.810878E-12
1.557786E+3,	554.715149E-15
1.557790E+3,	6.314033E-12
1.557794E+3,	11.721326E-12
1.557798E+3,	0.000000E+0
1.557802E+3,	0.000000E+0
1.557806E+3,	4.599524E-12
1.557810E+3,	2.943252E-12
1.557814E+3,	0.000000E+0
1.557818E+3,	0.000000E+0
1.557822E+3,	7.406796E-12
1.557826E+3,	5.313761E-12
1.557830E+3,	14.358037E-12
1.557834E+3,	8.687966E-12
1.557838E+3,	2.888442E-12
1.557842E+3,	0.000000E+0
1.557846E+3,	9.537996E-12
1.557850E+3,	6.433474E-12
1.557854E+3,	3.053575E-12
1.557858E+3,	14.432755E-12
1.557862E+3,	20.958114E-12
1.557866E+3,	16.471273E-12
1.557870E+3,	18.765142E-12
1.557874E+3,	27.233525E-12
1.557878E+3,	62.197232E-15
1.557882E+3,	21.267395E-12
1.557886E+3,	2.721034E-12
1.557890E+3,	0.000000E+0
1.557894E+3,	21.624543E-12
1.557898E+3,	6.624944E-12
1.557902E+3,	15.116138E-12
1.557906E+3,	15.888788E-12
1.557910E+3,	35.398590E-12
1.557914E+3,	30.976753E-12
1.557918E+3,	15.518441E-12
1.557922E+3,	25.138398E-12
1.557926E+3,	27.622993E-12
1.557930E+3,	16.039546E-12
1.557934E+3,	26.366652E-12
1.557938E+3,	35.001124E-12
1.557942E+3,	21.954920E-12
1.557946E+3,	23.696109E-12
1.557950E+3,	29.054257E-12
1.557954E+3,	35.091443E-12
1.557958E+3,	49.150758E-12
1.557962E+3,	38.153610E-12
1.557966E+3,	34.981772E-12
1.557970E+3,	38.103019E-12
1.557974E+3,	60.056646E-12
1.557978E+3,	34.915613E-12
1.557982E+3,	37.611421E-12
1.557986E+3,	65.650954E-12
1.557990E+3,	54.505891E-12
1.557994E+3,	51.665226E-12
1.557998E+3,	46.865024E-12
1.558002E+3,	49.877952E-12
1.558006E+3,	63.901928E-12
1.558010E+3,	51.541846E-12
1.558014E+3,	39.531610E-12
1.558018E+3,	54.990614E-12
1.558022E+3,	59.206521E-12
1.558026E+3,	72.281413E-12
1.558030E+3,	65.443789E-12
1.558034E+3,	57.929713E-12
1.558038E+3,	68.928759E-12
1.558042E+3,	66.669287E-12
1.558046E+3,	78.641427E-12
1.558050E+3,	87.177050E-12
1.558054E+3,	75.096923E-12
1.558058E+3,	124.702807E-12
1.558062E+3,	112.514966E-12
1.558066E+3,	130.711870E-12
1.558070E+3,	139.608908E-12
1.558074E+3,	129.406688E-12
1.558078E+3,	136.612202E-12
1.558082E+3,	155.390176E-12
1.558086E+3,	156.618915E-12
1.558090E+3,	151.451825E-12
1.558094E+3,	146.147731E-12
1.558098E+3,	142.937903E-12
1.558102E+3,	152.776170E-12
1.558106E+3,	149.064350E-12
1.558110E+3,	145.262094E-12
1.558114E+3,	129.851487E-12
1.558118E+3,	158.071429E-12
1.558122E+3,	147.158266E-12
1.558126E+3,	163.112538E-12
1.558130E+3,	172.088937E-12
1.558134E+3,	228.858485E-12
1.558138E+3,	225.459711E-12
1.558142E+3,	257.534086E-12
1.558146E+3,	284.728016E-12
1.558150E+3,	293.757285E-12
1.558154E+3,	330.265559E-12
1.558158E+3,	346.391483E-12
1.558162E+3,	365.443177E-12
1.558166E+3,	367.344558E-12
1.558170E+3,	366.433151E-12
1.558174E+3,	378.005446E-12
1.558178E+3,	358.638379E-12
1.558182E+3,	372.575193E-12
1.558186E+3,	348.090775E-12
1.558190E+3,	354.419190E-12
1.558194E+3,	335.852006E-12
1.558198E+3,	343.698989E-12
1.558202E+3,	329.890675E-12
1.558206E+3,	355.752047E-12
1.558210E+3,	363.385003E-12
1.558214E+3,	445.438335E-12
1.558218E+3,	490.857289E-12
1.558222E+3,	532.309774E-12
1.558226E+3,	577.326077E-12
1.558230E+3,	670.512125E-12
1.558234E+3,	723.858190E-12
1.558238E+3,	788.381119E-12
1.558242E+3,	875.819536E-12
1.558246E+3,	919.835411E-12
1.558250E+3,	969.503757E-12
1.558254E+3,	1.019095E-9
1.558258E+3,	1.032110E-9
1.558262E+3,	1.071470E-9
1.558266E+3,	1.072982E-9
1.558270E+3,	1.068297E-9
1.558274E+3,	1.078304E-9
1.558278E+3,	1.061043E-9
1.558282E+3,	1.022721E-9
1.558286E+3,	1.003564E-9
1.558290E+3,	1.017701E-9
1.558294E+3,	1.028941E-9
1.558298E+3,	1.058873E-9
1.558302E+3,	1.087731E-9
1.558306E+3,	1.162119E-9
1.558310E+3,	1.257736E-9
1.558314E+3,	1.341264E-9
1.558318E+3,	1.434407E-9
1.558322E+3,	1.549859E-9
1.558326E+3,	1.662491E-9
1.558330E+3,	1.786559E-9
1.558334E+3,	1.902583E-9
1.558338E+3,	2.032897E-9
1.558342E+3,	2.125861E-9
1.558346E+3,	2.220288E-9
1.558350E+3,	2.289863E-9
1.558354E+3,	2.347275E-9
1.558358E+3,	2.369530E-9
1.558362E+3,	2.394803E-9
1.558366E+3,	2.355293E-9
1.558370E+3,	2.308551E-9
1.558374E+3,	2.286345E-9
1.558378E+3,	2.215012E-9
1.558382E+3,	2.137829E-9
1.558386E+3,	2.108014E-9
1.558390E+3,	2.039012E-9
1.558394E+3,	2.046237E-9
1.558398E+3,	2.008731E-9
1.558402E+3,	2.039639E-9
1.558406E+3,	2.107151E-9
1.558410E+3,	2.168162E-9
1.558414E+3,	2.270736E-9
1.558418E+3,	2.470233E-9
1.558422E+3,	2.652199E-9
1.558426E+3,	2.848903E-9
1.558430E+3,	3.027262E-9
1.558434E+3,	3.300359E-9
1.558438E+3,	3.524988E-9
1.558442E+3,	3.694731E-9
1.558446E+3,	3.865710E-9
1.558450E+3,	3.989860E-9
1.558454E+3,	4.048538E-9
1.558458E+3,	4.038514E-9
1.558462E+3,	3.909132E-9
1.558466E+3,	3.747605E-9
1.558470E+3,	3.554614E-9
1.558474E+3,	3.285284E-9
1.558478E+3,	2.978188E-9
1.558482E+3,	2.758366E-9
1.558486E+3,	2.526498E-9
1.558490E+3,	2.365680E-9
1.558494E+3,	2.309789E-9
1.558498E+3,	2.364359E-9
1.558502E+3,	2.574270E-9
1.558506E+3,	2.879313E-9
1.558510E+3,	3.246926E-9
1.558514E+3,	3.826406E-9
1.558518E+3,	4.331073E-9
1.558522E+3,	4.818557E-9
1.558526E+3,	5.313128E-9
1.558530E+3,	5.864616E-9
1.558534E+3,	6.228218E-9
1.558538E+3,	6.382545E-9
1.558542E+3,	6.407860E-9
1.558546E+3,	6.240377E-9
1.558550E+3,	5.936223E-9
1.558554E+3,	5.494173E-9
1.558558E+3,	4.819809E-9
1.558562E+3,	4.147941E-9
1.558566E+3,	3.621245E-9
1.558570E+3,	2.993062E-9
1.558574E+3,	2.585071E-9
1.558578E+3,	2.423119E-9
1.558582E+3,	2.478007E-9
1.558586E+3,	2.779838E-9
1.558590E+3,	3.233895E-9
1.558594E+3,	3.902445E-9
1.558598E+3,	4.916971E-9
1.558602E+3,	5.849575E-9
1.558606E+3,	6.607377E-9
1.558610E+3,	7.508352E-9
1.558614E+3,	8.146713E-9
1.558618E+3,	8.464947E-9
1.558622E+3,	8.588317E-9
1.558626E+3,	8.328634E-9
1.558630E+3,	7.912911E-9
1.558634E+3,	7.351543E-9
1.558638E+3,	6.430928E-9
1.558642E+3,	5.495875E-9
1.558646E+3,	4.730602E-9
1.558650E+3,	3.896759E-9
1.558654E+3,	3.403132E-9
1.558658E+3,	3.217256E-9
1.558662E+3,	3.321318E-9
1.558666E+3,	3.914966E-9
1.558670E+3,	4.937663E-9
1.558674E+3,	5.959853E-9
1.558678E+3,	7.467233E-9
1.558682E+3,	8.887903E-9
1.558686E+3,	9.977415E-9
1.558690E+3,	11.022797E-9
1.558694E+3,	11.875108E-9
1.558698E+3,	12.188916E-9
1.558702E+3,	12.098837E-9
1.558706E+3,	11.490241E-9
1.558710E+3,	10.591888E-9
1.558714E+3,	9.636742E-9
1.558718E+3,	8.492071E-9
1.558722E+3,	7.045744E-9
1.558726E+3,	5.871574E-9
1.558730E+3,	5.119172E-9
1.558734E+3,	4.548345E-9
1.558738E+3,	4.431880E-9
1.558742E+3,	4.740382E-9
1.558746E+3,	5.735999E-9
1.558750E+3,	7.141714E-9
1.558754E+3,	8.520473E-9
1.558758E+3,	10.188180E-9
1.558762E+3,	12.190321E-9
1.558766E+3,	13.828029E-9
1.558770E+3,	14.872260E-9
1.558774E+3,	15.627351E-9
1.558778E+3,	15.709220E-9
1.558782E+3,	15.240638E-9
1.558786E+3,	14.250876E-9
1.558790E+3,	12.651470E-9
1.558794E+3,	10.987782E-9
1.558798E+3,	9.493989E-9
1.558802E+3,	7.655354E-9
1.558806E+3,	6.334996E-9
1.558810E+3,	5.587063E-9
1.558814E+3,	5.193617E-9
1.558818E+3,	5.318074E-9
1.558822E+3,	5.913433E-9
1.558826E+3,	6.853916E-9
1.558830E+3,	8.626320E-9
1.558834E+3,	10.502023E-9
1.558838E+3,	12.213856E-9
1.558842E+3,	14.309424E-9
1.558846E+3,	15.949937E-9
1.558850E+3,	16.989890E-9
1.558854E+3,	17.625405E-9
1.558858E+3,	17.622595E-9
1.558862E+3,	16.919765E-9
1.558866E+3,	15.887062E-9
1.558870E+3,	14.163090E-9
1.558874E+3,	12.258633E-9
1.558878E+3,	10.618494E-9
1.558882E+3,	8.917257E-9
1.558886E+3,	7.267784E-9
1.558890E+3,	6.230800E-9
1.558894E+3,	5.798241E-9
1.558898E+3,	5.874510E-9
1.558902E+3,	6.537636E-9
1.558906E+3,	7.518487E-9
1.558910E+3,	9.036702E-9
1.558914E+3,	11.135641E-9
1.558918E+3,	13.075146E-9
1.558922E+3,	14.534663E-9
1.558926E+3,	16.269828E-9
1.558930E+3,	17.450043E-9
1.558934E+3,	18.024949E-9
1.558938E+3,	18.091726E-9
1.558942E+3,	17.530386E-9
1.558946E+3,	16.554770E-9
1.558950E+3,	15.239393E-9
1.558954E+3,	13.335909E-9
1.558958E+3,	11.379277E-9
1.558962E+3,	9.897585E-9
1.558966E+3,	8.271731E-9
1.558970E+3,	7.256126E-9
1.558974E+3,	6.933462E-9
1.558978E+3,	7.047597E-9
1.558982E+3,	7.858567E-9
1.558986E+3,	9.140697E-9
1.558990E+3,	10.543190E-9
1.558994E+3,	12.809697E-9
1.558998E+3,	14.857935E-9
1.559002E+3,	16.370092E-9
1.559006E+3,	17.935832E-9
1.559010E+3,	18.996095E-9
1.559014E+3,	19.493131E-9
1.559018E+3,	19.473764E-9
1.559022E+3,	18.631756E-9
1.559026E+3,	17.390769E-9
1.559030E+3,	16.069655E-9
1.559034E+3,	13.962420E-9
1.559038E+3,	11.965237E-9
1.559042E+3,	10.456041E-9
1.559046E+3,	8.854762E-9
1.559050E+3,	7.967344E-9
1.559054E+3,	7.831407E-9
1.559058E+3,	8.191914E-9
1.559062E+3,	9.387849E-9
1.559066E+3,	11.123479E-9
1.559070E+3,	12.973492E-9
1.559074E+3,	15.566459E-9
1.559078E+3,	17.926696E-9
1.559082E+3,	19.667785E-9
1.559086E+3,	21.464472E-9
1.559090E+3,	22.522281E-9
1.559094E+3,	22.800612E-9
1.559098E+3,	22.397883E-9
1.559102E+3,	21.170356E-9
1.559106E+3,	19.427768E-9
1.559110E+3,	17.656810E-9
1.559114E+3,	15.014331E-9
1.559118E+3,	12.643067E-9
1.559122E+3,	10.970692E-9
1.559126E+3,	9.228291E-9
1.559130E+3,	8.365124E-9
1.559134E+3,	8.243676E-9
1.559138E+3,	8.759771E-9
1.559142E+3,	10.099030E-9
1.559146E+3,	11.993656E-9
1.559150E+3,	13.890955E-9
1.559154E+3,	16.491229E-9
1.559158E+3,	18.839845E-9
1.559162E+3,	20.456558E-9
1.559166E+3,	21.926715E-9
1.559170E+3,	22.628595E-9
1.559174E+3,	22.615460E-9
1.559178E+3,	21.999840E-9
1.559182E+3,	20.565995E-9
1.559186E+3,	18.798537E-9
1.559190E+3,	17.150268E-9
1.559194E+3,	14.718474E-9
1.559198E+3,	12.475001E-9
1.559202E+3,	10.733883E-9
1.559206E+3,	8.859678E-9
1.559210E+3,	7.722901E-9
1.559214E+3,	7.229724E-9
1.559218E+3,	7.177909E-9
1.559222E+3,	7.768504E-9
1.559226E+3,	8.865306E-9
1.559230E+3,	10.133920E-9
1.559234E+3,	12.176540E-9
1.559238E+3,	14.070361E-9
1.559242E+3,	15.579040E-9
1.559246E+3,	17.216075E-9
1.559250E+3,	18.319395E-9
1.559254E+3,	18.863544E-9
1.559258E+3,	18.998548E-9
1.559262E+3,	18.401769E-9
1.559266E+3,	17.343620E-9
1.559270E+3,	16.171738E-9
1.559274E+3,	14.286260E-9
1.559278E+3,	12.364656E-9
1.559282E+3,	10.727035E-9
1.559286E+3,	8.710232E-9
1.559290E+3,	7.344508E-9
1.559294E+3,	6.641001E-9
1.559298E+3,	6.359818E-9
1.559302E+3,	6.735895E-9
1.559306E+3,	7.617830E-9
1.559310E+3,	8.755884E-9
1.559314E+3,	10.688320E-9
1.559318E+3,	12.546792E-9
1.559322E+3,	14.101195E-9
1.559326E+3,	15.755744E-9
1.559330E+3,	16.861816E-9
1.559334E+3,	17.326220E-9
1.559338E+3,	17.252436E-9
1.559342E+3,	16.409955E-9
1.559346E+3,	15.093259E-9
1.559350E+3,	13.691035E-9
1.559354E+3,	11.617322E-9
1.559358E+3,	9.718141E-9
1.559362E+3,	8.306233E-9
1.559366E+3,	7.024801E-9
1.559370E+3,	6.435432E-9
1.559374E+3,	6.459547E-9
1.559378E+3,	7.018447E-9
1.559382E+3,	8.282993E-9
1.559386E+3,	9.936687E-9
1.559390E+3,	11.627825E-9
1.559394E+3,	13.987639E-9
1.559398E+3,	15.930220E-9
1.559402E+3,	17.101108E-9
1.559406E+3,	18.068566E-9
1.559410E+3,	18.331741E-9
1.559414E+3,	18.002740E-9
1.559418E+3,	17.039566E-9
1.559422E+3,	15.276142E-9
1.559426E+3,	13.374542E-9
1.559430E+3,	11.750070E-9
1.559434E+3,	9.752797E-9
1.559438E+3,	8.167884E-9
1.559442E+3,	7.207636E-9
1.559446E+3,	6.634129E-9
1.559450E+3,	6.756478E-9
1.559454E+3,	7.362471E-9
1.559458E+3,	8.450294E-9
1.559462E+3,	10.221018E-9
1.559466E+3,	12.069776E-9
1.559470E+3,	13.779468E-9
1.559474E+3,	15.925567E-9
1.559478E+3,	17.565337E-9
1.559482E+3,	18.548433E-9
1.559486E+3,	19.197150E-9
1.559490E+3,	19.142524E-9
1.559494E+3,	18.646937E-9
1.559498E+3,	17.619998E-9
1.559502E+3,	15.932416E-9
1.559506E+3,	14.133700E-9
1.559510E+3,	12.620840E-9
1.559514E+3,	10.623850E-9
1.559518E+3,	9.096835E-9
1.559522E+3,	8.142548E-9
1.559526E+3,	7.389984E-9
1.559530E+3,	7.218354E-9
1.559534E+3,	7.575548E-9
1.559538E+3,	8.313652E-9
1.559542E+3,	9.722050E-9
1.559546E+3,	11.389119E-9
1.559550E+3,	13.026558E-9
1.559554E+3,	15.232890E-9
1.559558E+3,	17.123160E-9
1.559562E+3,	18.354436E-9
1.559566E+3,	19.522358E-9
1.559570E+3,	20.128587E-9
1.559574E+3,	20.168772E-9
1.559578E+3,	19.673232E-9
1.559582E+3,	18.316376E-9
1.559586E+3,	16.646766E-9
1.559590E+3,	15.148833E-9
1.559594E+3,	12.915547E-9
1.559598E+3,	10.849456E-9
1.559602E+3,	9.465297E-9
1.559606E+3,	8.201386E-9
1.559610E+3,	7.693095E-9
1.559614E+3,	7.826863E-9
1.559618E+3,	8.460954E-9
1.559622E+3,	9.931438E-9
1.559626E+3,	11.744421E-9
1.559630E+3,	13.458164E-9
1.559634E+3,	15.841947E-9
1.559638E+3,	17.963088E-9
1.559642E+3,	19.303130E-9
1.559646E+3,	20.444479E-9
1.559650E+3,	20.839650E-9
1.559654E+3,	20.520695E-9
1.559658E+3,	19.551541E-9
1.559662E+3,	17.585312E-9
1.559666E+3,	15.361933E-9
1.559670E+3,	13.471559E-9
1.559674E+3,	11.147257E-9
1.559678E+3,	9.175539E-9
1.559682E+3,	7.954410E-9
1.559686E+3,	7.072344E-9
1.559690E+3,	7.005365E-9
1.559694E+3,	7.540166E-9
1.559698E+3,	8.617701E-9
1.559702E+3,	10.436208E-9
1.559706E+3,	12.320099E-9
1.559710E+3,	13.926670E-9
1.559714E+3,	15.873826E-9
1.559718E+3,	17.179723E-9
1.559722E+3,	17.777219E-9
1.559726E+3,	17.870128E-9
1.559730E+3,	17.319507E-9
1.559734E+3,	16.323736E-9
1.559738E+3,	14.852512E-9
1.559742E+3,	12.746479E-9
1.559746E+3,	10.747948E-9
1.559750E+3,	9.212482E-9
1.559754E+3,	7.543172E-9
1.559758E+3,	6.487553E-9
1.559762E+3,	6.107329E-9
1.559766E+3,	6.241811E-9
1.559770E+3,	7.032644E-9
1.559774E+3,	8.072475E-9
1.559778E+3,	9.531504E-9
1.559782E+3,	11.444663E-9
1.559786E+3,	13.148141E-9
1.559790E+3,	14.436784E-9
1.559794E+3,	15.804723E-9
1.559798E+3,	16.557747E-9
1.559802E+3,	16.690820E-9
1.559806E+3,	16.333270E-9
1.559810E+3,	15.496278E-9
1.559814E+3,	14.472808E-9
1.559818E+3,	13.042697E-9
1.559822E+3,	11.197319E-9
1.559826E+3,	9.458411E-9
1.559830E+3,	8.271981E-9
1.559834E+3,	6.962676E-9
1.559838E+3,	6.121597E-9
1.559842E+3,	5.816979E-9
1.559846E+3,	6.013508E-9
1.559850E+3,	6.667715E-9
1.559854E+3,	7.651298E-9
1.559858E+3,	9.014171E-9
1.559862E+3,	10.967129E-9
1.559866E+3,	12.838509E-9
1.559870E+3,	14.337658E-9
1.559874E+3,	16.189672E-9
1.559878E+3,	17.568861E-9
1.559882E+3,	18.356194E-9
1.559886E+3,	18.751998E-9
1.559890E+3,	18.546058E-9
1.559894E+3,	17.921482E-9
1.559898E+3,	16.809424E-9
1.559902E+3,	14.941242E-9
1.559906E+3,	12.950860E-9
1.559910E+3,	11.404900E-9
1.559914E+3,	9.536257E-9
1.559918E+3,	8.085615E-9
1.559922E+3,	7.200229E-9
1.559926E+3,	6.658666E-9
1.559930E+3,	6.794167E-9
1.559934E+3,	7.430137E-9
1.559938E+3,	8.599513E-9
1.559942E+3,	10.586869E-9
1.559946E+3,	12.707907E-9
1.559950E+3,	14.588095E-9
1.559954E+3,	17.053692E-9
1.559958E+3,	18.875731E-9
1.559962E+3,	19.967166E-9
1.559966E+3,	20.679172E-9
1.559970E+3,	20.580447E-9
1.559974E+3,	19.877456E-9
1.559978E+3,	18.576773E-9
1.559982E+3,	16.406002E-9
1.559986E+3,	14.084822E-9
1.559990E+3,	12.236385E-9
1.559994E+3,	9.978929E-9
1.559998E+3,	8.281879E-9
1.560002E+3,	7.329392E-9
1.560006E+3,	6.745619E-9
1.560010E+3,	6.889712E-9
1.560014E+3,	7.619030E-9
1.560018E+3,	8.869255E-9
1.560022E+3,	10.745774E-9
1.560026E+3,	12.646457E-9
1.560030E+3,	14.211734E-9
1.560034E+3,	16.086566E-9
1.560038E+3,	17.420894E-9
1.560042E+3,	18.001125E-9
1.560046E+3,	18.026675E-9
1.560050E+3,	17.385413E-9
1.560054E+3,	16.367824E-9
1.560058E+3,	14.446503E-9
1.560062E+3,	12.330669E-9
1.560066E+3,	10.640276E-9
1.560070E+3,	8.947211E-9
1.560074E+3,	7.313541E-9
1.560078E+3,	6.371677E-9
1.560082E+3,	6.013230E-9
1.560086E+3,	6.161146E-9
1.560090E+3,	6.939594E-9
1.560094E+3,	7.872652E-9
1.560098E+3,	9.373975E-9
1.560102E+3,	10.849707E-9
1.560106E+3,	12.031598E-9
1.560110E+3,	13.408737E-9
1.560114E+3,	14.388602E-9
1.560118E+3,	14.819134E-9
1.560122E+3,	14.890073E-9
1.560126E+3,	14.420580E-9
1.560130E+3,	13.583149E-9
1.560134E+3,	12.591932E-9
1.560138E+3,	11.008705E-9
1.560142E+3,	9.342365E-9
1.560146E+3,	8.093201E-9
1.560150E+3,	6.823747E-9
1.560154E+3,	5.962467E-9
1.560158E+3,	5.638685E-9
1.560162E+3,	5.658531E-9
1.560166E+3,	6.199426E-9
1.560170E+3,	6.996742E-9
1.560174E+3,	8.100464E-9
1.560178E+3,	9.709752E-9
1.560182E+3,	11.238163E-9
1.560186E+3,	12.501739E-9
1.560190E+3,	14.156203E-9
1.560194E+3,	15.403433E-9
1.560198E+3,	16.162028E-9
1.560202E+3,	16.641925E-9
1.560206E+3,	16.590774E-9
1.560210E+3,	16.129185E-9
1.560214E+3,	15.026958E-9
1.560218E+3,	13.592204E-9
1.560222E+3,	12.191079E-9
1.560226E+3,	10.533388E-9
1.560230E+3,	8.702040E-9
1.560234E+3,	7.357838E-9
1.560238E+3,	6.582988E-9
1.560242E+3,	6.126641E-9
1.560246E+3,	6.388353E-9
1.560250E+3,	7.168184E-9
1.560254E+3,	8.807743E-9
1.560258E+3,	10.694284E-9
1.560262E+3,	12.445607E-9
1.560266E+3,	14.959707E-9
1.560270E+3,	17.219261E-9
1.560274E+3,	18.721594E-9
1.560278E+3,	19.998541E-9
1.560282E+3,	20.730999E-9
1.560286E+3,	20.734980E-9
1.560290E+3,	20.072982E-9
1.560294E+3,	18.525378E-9
1.560298E+3,	16.541685E-9
1.560302E+3,	14.720861E-9
1.560306E+3,	12.168978E-9
1.560310E+3,	9.936988E-9
1.560314E+3,	8.372643E-9
1.560318E+3,	7.009548E-9
1.560322E+3,	6.480210E-9
1.560326E+3,	6.656545E-9
1.560330E+3,	7.695409E-9
1.560334E+3,	9.276557E-9
1.560338E+3,	10.901551E-9
1.560342E+3,	12.707317E-9
1.560346E+3,	14.781443E-9
1.560350E+3,	16.498804E-9
1.560354E+3,	17.517982E-9
1.560358E+3,	18.180580E-9
1.560362E+3,	18.081753E-9
1.560366E+3,	17.508099E-9
1.560370E+3,	16.114253E-9
1.560374E+3,	14.431936E-9
1.560378E+3,	12.728400E-9
1.560382E+3,	10.385904E-9
1.560386E+3,	8.483378E-9
1.560390E+3,	7.182722E-9
1.560394E+3,	6.092573E-9
1.560398E+3,	5.410519E-9
1.560402E+3,	5.336160E-9
1.560406E+3,	5.757475E-9
1.560410E+3,	6.780760E-9
1.560414E+3,	8.071799E-9
1.560418E+3,	9.250881E-9
1.560422E+3,	10.806414E-9
1.560426E+3,	12.053327E-9
1.560430E+3,	12.855409E-9
1.560434E+3,	13.461765E-9
1.560438E+3,	13.588487E-9
1.560442E+3,	13.307244E-9
1.560446E+3,	12.701312E-9
1.560450E+3,	11.566302E-9
1.560454E+3,	10.356368E-9
1.560458E+3,	9.318828E-9
1.560462E+3,	7.891415E-9
1.560466E+3,	6.736166E-9
1.560470E+3,	6.064044E-9
1.560474E+3,	5.507244E-9
1.560478E+3,	5.389189E-9
1.560482E+3,	5.547084E-9
1.560486E+3,	6.171484E-9
1.560490E+3,	7.091757E-9
1.560494E+3,	8.051677E-9
1.560498E+3,	9.222027E-9
1.560502E+3,	10.700600E-9
1.560506E+3,	11.982624E-9
1.560510E+3,	12.878065E-9
1.560514E+3,	13.876522E-9
1.560518E+3,	14.353541E-9
1.560522E+3,	14.426111E-9
1.560526E+3,	13.979244E-9
1.560530E+3,	13.171707E-9
1.560534E+3,	12.188545E-9
1.560538E+3,	10.615935E-9
1.560542E+3,	9.151366E-9
1.560546E+3,	7.987843E-9
1.560550E+3,	6.976938E-9
1.560554E+3,	6.201079E-9
1.560558E+3,	5.940043E-9
1.560562E+3,	6.129580E-9
1.560566E+3,	6.996456E-9
1.560570E+3,	8.346749E-9
1.560574E+3,	9.786846E-9
1.560578E+3,	11.933982E-9
1.560582E+3,	13.974693E-9
1.560586E+3,	15.619282E-9
1.560590E+3,	17.625955E-9
1.560594E+3,	19.049065E-9
1.560598E+3,	19.664645E-9
1.560602E+3,	19.772090E-9
1.560606E+3,	19.092529E-9
1.560610E+3,	17.773348E-9
1.560614E+3,	16.168060E-9
1.560618E+3,	13.679182E-9
1.560622E+3,	11.287613E-9
1.560626E+3,	9.524961E-9
1.560630E+3,	7.748219E-9
1.560634E+3,	6.734107E-9
1.560638E+3,	6.517237E-9
1.560642E+3,	6.994653E-9
1.560646E+3,	8.092681E-9
1.560650E+3,	9.486938E-9
1.560654E+3,	11.225822E-9
1.560658E+3,	13.355574E-9
1.560662E+3,	15.218897E-9
1.560666E+3,	16.555674E-9
1.560670E+3,	17.937570E-9
1.560674E+3,	18.699705E-9
1.560678E+3,	18.810285E-9
1.560682E+3,	18.269243E-9
1.560686E+3,	17.117680E-9
1.560690E+3,	15.788002E-9
1.560694E+3,	13.624645E-9
1.560698E+3,	11.359377E-9
1.560702E+3,	9.448399E-9
1.560706E+3,	7.650203E-9
1.560710E+3,	6.026772E-9
1.560714E+3,	5.117677E-9
1.560718E+3,	4.909512E-9
1.560722E+3,	5.168680E-9
1.560726E+3,	5.875468E-9
1.560730E+3,	6.824566E-9
1.560734E+3,	8.268595E-9
1.560738E+3,	9.578652E-9
1.560742E+3,	10.537698E-9
1.560746E+3,	11.556614E-9
1.560750E+3,	12.291577E-9
1.560754E+3,	12.592495E-9
1.560758E+3,	12.648607E-9
1.560762E+3,	12.269143E-9
1.560766E+3,	11.597610E-9
1.560770E+3,	10.858085E-9
1.560774E+3,	9.666291E-9
1.560778E+3,	8.407093E-9
1.560782E+3,	7.353781E-9
1.560786E+3,	6.059130E-9
1.560790E+3,	5.092679E-9
1.560794E+3,	4.553115E-9
1.560798E+3,	4.142077E-9
1.560802E+3,	4.091224E-9
1.560806E+3,	4.319339E-9
1.560810E+3,	4.794939E-9
1.560814E+3,	5.696615E-9
1.560818E+3,	6.653945E-9
1.560822E+3,	7.525054E-9
1.560826E+3,	8.659331E-9
1.560830E+3,	9.625217E-9
1.560834E+3,	10.262672E-9
1.560838E+3,	10.905145E-9
1.560842E+3,	11.138531E-9
1.560846E+3,	11.069123E-9
1.560850E+3,	10.727215E-9
1.560854E+3,	10.100577E-9
1.560858E+3,	9.437452E-9
1.560862E+3,	8.535059E-9
1.560866E+3,	7.431253E-9
1.560870E+3,	6.451416E-9
1.560874E+3,	5.768809E-9
1.560878E+3,	5.160197E-9
1.560882E+3,	4.924591E-9
1.560886E+3,	4.978627E-9
1.560890E+3,	5.589877E-9
1.560894E+3,	6.514521E-9
1.560898E+3,	7.541928E-9
1.560902E+3,	9.054788E-9
1.560906E+3,	10.456301E-9
1.560910E+3,	11.454108E-9
1.560914E+3,	12.397754E-9
1.560918E+3,	13.037519E-9
1.560922E+3,	13.141579E-9
1.560926E+3,	12.806777E-9
1.560930E+3,	11.854028E-9
1.560934E+3,	10.709892E-9
1.560938E+3,	9.702792E-9
1.560942E+3,	8.266965E-9
1.560946E+3,	7.053978E-9
1.560950E+3,	6.227112E-9
1.560954E+3,	5.523157E-9
1.560958E+3,	5.299290E-9
1.560962E+3,	5.395313E-9
1.560966E+3,	5.795276E-9
1.560970E+3,	6.725800E-9
1.560974E+3,	7.832601E-9
1.560978E+3,	8.855761E-9
1.560982E+3,	10.216327E-9
1.560986E+3,	11.267600E-9
1.560990E+3,	11.903027E-9
1.560994E+3,	12.310414E-9
1.560998E+3,	12.221931E-9
1.561002E+3,	11.752505E-9
1.561006E+3,	10.670511E-9
1.561010E+3,	9.508337E-9
1.561014E+3,	8.458204E-9
1.561018E+3,	7.095538E-9
1.561022E+3,	6.083862E-9
1.561026E+3,	5.474638E-9
1.561030E+3,	5.097624E-9
1.561034E+3,	5.006558E-9
1.561038E+3,	5.231002E-9
1.561042E+3,	5.548789E-9
1.561046E+3,	6.079199E-9
1.561050E+3,	6.635624E-9
1.561054E+3,	7.071964E-9
1.561058E+3,	7.516526E-9
1.561062E+3,	7.803453E-9
1.561066E+3,	7.902624E-9
1.561070E+3,	7.866784E-9
1.561074E+3,	7.668100E-9
1.561078E+3,	7.368181E-9
1.561082E+3,	6.912993E-9
1.561086E+3,	6.470717E-9
1.561090E+3,	6.150883E-9
1.561094E+3,	5.816869E-9
1.561098E+3,	5.568635E-9
1.561102E+3,	5.451848E-9
1.561106E+3,	5.428656E-9
1.561110E+3,	5.483559E-9
1.561114E+3,	5.549867E-9
1.561118E+3,	5.610475E-9
1.561122E+3,	5.656814E-9
1.561126E+3,	5.652316E-9
1.561130E+3,	5.648359E-9
1.561134E+3,	5.578987E-9
1.561138E+3,	5.540024E-9
1.561142E+3,	5.497783E-9
1.561146E+3,	5.518999E-9
1.561150E+3,	5.577390E-9
1.561154E+3,	5.647041E-9
1.561158E+3,	5.841795E-9
1.561162E+3,	6.064010E-9
1.561166E+3,	6.159958E-9
1.561170E+3,	6.352765E-9
1.561174E+3,	6.473795E-9
1.561178E+3,	6.544166E-9
1.561182E+3,	6.532696E-9
1.561186E+3,	6.388426E-9
1.561190E+3,	6.226468E-9
1.561194E+3,	6.044026E-9
1.561198E+3,	5.835137E-9
1.561202E+3,	5.629341E-9
1.561206E+3,	5.551780E-9
1.561210E+3,	5.484268E-9
1.561214E+3,	5.520558E-9
1.561218E+3,	5.580184E-9
1.561222E+3,	5.739783E-9
1.561226E+3,	5.912304E-9
1.561230E+3,	6.009061E-9
1.561234E+3,	6.136393E-9
1.561238E+3,	6.110920E-9
1.561242E+3,	6.063852E-9
1.561246E+3,	5.879574E-9
1.561250E+3,	5.672362E-9
1.561254E+3,	5.443704E-9
1.561258E+3,	5.188898E-9
1.561262E+3,	4.897911E-9
1.561266E+3,	4.691233E-9
1.561270E+3,	4.590632E-9
1.561274E+3,	4.612237E-9
1.561278E+3,	4.719138E-9
1.561282E+3,	4.911202E-9
1.561286E+3,	5.232003E-9
1.561290E+3,	5.507835E-9
1.561294E+3,	5.733431E-9
1.561298E+3,	5.938881E-9
1.561302E+3,	5.968957E-9
1.561306E+3,	5.892886E-9
1.561310E+3,	5.621092E-9
1.561314E+3,	5.290907E-9
1.561318E+3,	4.942345E-9
1.561322E+3,	4.422739E-9
1.561326E+3,	3.976198E-9
1.561330E+3,	3.688610E-9
1.561334E+3,	3.433726E-9
1.561338E+3,	3.308238E-9
1.561342E+3,	3.302770E-9
1.561346E+3,	3.401489E-9
1.561350E+3,	3.659089E-9
1.561354E+3,	3.943511E-9
1.561358E+3,	4.160743E-9
1.561362E+3,	4.453988E-9
1.561366E+3,	4.570136E-9
1.561370E+3,	4.594661E-9
1.561374E+3,	4.480675E-9
1.561378E+3,	4.223439E-9
1.561382E+3,	3.943446E-9
1.561386E+3,	3.545039E-9
1.561390E+3,	3.173414E-9
1.561394E+3,	2.928033E-9
1.561398E+3,	2.665205E-9
1.561402E+3,	2.554470E-9
1.561406E+3,	2.515035E-9
1.561410E+3,	2.584144E-9
1.561414E+3,	2.708393E-9
1.561418E+3,	2.872964E-9
1.561422E+3,	2.980820E-9
1.561426E+3,	3.092758E-9
1.561430E+3,	3.118065E-9
1.561434E+3,	3.050099E-9
1.561438E+3,	2.898959E-9
1.561442E+3,	2.687891E-9
1.561446E+3,	2.474808E-9
1.561450E+3,	2.188928E-9
1.561454E+3,	1.912227E-9
1.561458E+3,	1.752056E-9
1.561462E+3,	1.609540E-9
1.561466E+3,	1.567212E-9
1.561470E+3,	1.600596E-9
1.561474E+3,	1.760798E-9
1.561478E+3,	1.979546E-9
1.561482E+3,	2.186121E-9
1.561486E+3,	2.332367E-9
1.561490E+3,	2.477863E-9
1.561494E+3,	2.532817E-9
1.561498E+3,	2.512247E-9
1.561502E+3,	2.362933E-9
1.561506E+3,	2.133927E-9
1.561510E+3,	1.935678E-9
1.561514E+3,	1.606220E-9
1.561518E+3,	1.364065E-9
1.561522E+3,	1.185296E-9
1.561526E+3,	1.029478E-9
1.561530E+3,	906.873683E-12
1.561534E+3,	875.489070E-12
1.561538E+3,	913.410059E-12
1.561542E+3,	1.026456E-9
1.561546E+3,	1.124784E-9
1.561550E+3,	1.250210E-9
1.561554E+3,	1.357932E-9
1.561558E+3,	1.425110E-9
1.561562E+3,	1.430522E-9
1.561566E+3,	1.385842E-9
1.561570E+3,	1.280633E-9
1.561574E+3,	1.187713E-9
1.561578E+3,	1.012209E-9
1.561582E+3,	877.065144E-12
1.561586E+3,	747.842620E-12
1.561590E+3,	644.051625E-12
1.561594E+3,	541.516031E-12
1.561598E+3,	509.480073E-12
1.561602E+3,	512.984846E-12
1.561606E+3,	524.626494E-12
1.561610E+3,	550.517294E-12
1.561614E+3,	575.155383E-12
1.561618E+3,	596.832495E-12
1.561622E+3,	597.027046E-12
1.561626E+3,	599.706210E-12
1.561630E+3,	545.909844E-12
1.561634E+3,	514.029731E-12
1.561638E+3,	427.316744E-12
1.561642E+3,	369.713298E-12
1.561646E+3,	319.588098E-12
1.561650E+3,	265.553003E-12
1.561654E+3,	247.279099E-12
1.561658E+3,	241.827633E-12
1.561662E+3,	256.567366E-12
1.561666E+3,	248.779937E-12
1.561670E+3,	277.545483E-12
1.561674E+3,	299.364980E-12
1.561678E+3,	328.263698E-12
1.561682E+3,	301.357383E-12
1.561686E+3,	316.192206E-12
1.561690E+3,	289.727346E-12
1.561694E+3,	256.105528E-12
1.561698E+3,	240.592592E-12
1.561702E+3,	184.885056E-12
1.561706E+3,	152.361008E-12
1.561710E+3,	168.872444E-12
1.561714E+3,	157.522453E-12
1.561718E+3,	141.572575E-12
1.561722E+3,	148.358963E-12
1.561726E+3,	160.524389E-12
1.561730E+3,	163.413637E-12
1.561734E+3,	175.731799E-12
1.561738E+3,	194.269853E-12
1.561742E+3,	176.470665E-12
1.561746E+3,	166.767765E-12
1.561750E+3,	180.481744E-12
1.561754E+3,	136.023302E-12
1.561758E+3,	120.047613E-12
1.561762E+3,	114.626766E-12
1.561766E+3,	82.706181E-12
1.561770E+3,	58.774446E-12
1.561774E+3,	77.754311E-12
1.561778E+3,	83.674129E-12
1.561782E+3,	80.434383E-12
1.561786E+3,	89.192374E-12
1.561790E+3,	110.327277E-12
1.561794E+3,	117.151540E-12
1.561798E+3,	91.763784E-12
1.561802E+3,	109.644143E-12
1.561806E+3,	117.705050E-12
1.561810E+3,	103.653169E-12
1.561814E+3,	119.830776E-12
1.561818E+3,	110.114173E-12
1.561822E+3,	110.208677E-12
1.561826E+3,	95.521705E-12
1.561830E+3,	72.917398E-12
1.561834E+3,	87.881629E-12
1.561838E+3,	81.173037E-12
1.561842E+3,	83.109175E-12
1.561846E+3,	92.586115E-12
1.561850E+3,	82.768854E-12
1.561854E+3,	90.140448E-12
1.561858E+3,	98.704408E-12
1.561862E+3,	58.473457E-12
1.561866E+3,	50.156295E-12
1.561870E+3,	65.105422E-12
1.561874E+3,	38.007703E-12
1.561878E+3,	51.362873E-12
1.561882E+3,	26.065149E-12
1.561886E+3,	33.336669E-12
1.561890E+3,	30.016757E-12
1.561894E+3,	33.940293E-12
1.561898E+3,	30.679110E-12
1.561902E+3,	24.187610E-12
1.561906E+3,	39.747002E-12
1.561910E+3,	38.928935E-12
1.561914E+3,	34.657170E-12
1.561918E+3,	22.322226E-12
1.561922E+3,	25.467390E-12
1.561926E+3,	43.497758E-12
1.561930E+3,	23.234889E-12
1.561934E+3,	24.516304E-12
1.561938E+3,	35.661091E-12
1.561942E+3,	24.490168E-12
1.561946E+3,	11.398805E-12
1.561950E+3,	14.678576E-12
1.561954E+3,	47.013922E-12
1.561958E+3,	26.018502E-12
1.561962E+3,	19.765422E-12
1.561966E+3,	20.133427E-12
1.561970E+3,	18.549497E-12
1.561974E+3,	41.718635E-12
1.561978E+3,	29.284209E-12
1.561982E+3,	19.677553E-12
1.561986E+3,	7.107368E-12
1.561990E+3,	1.122723E-12
1.561994E+3,	13.257902E-12
1.561998E+3,	26.918610E-12
1.562002E+3,	16.127231E-12
1.562006E+3,	6.445750E-12
1.562010E+3,	6.570610E-12
1.562014E+3,	15.381500E-12
1.562018E+3,	22.332509E-12
1.562022E+3,	23.605906E-12
1.562026E+3,	25.040639E-12
1.562030E+3,	18.824997E-12
1.562034E+3,	446.795304E-15
1.562038E+3,	3.228817E-12
1.562042E+3,	8.202735E-12
1.562046E+3,	0.000000E+0
1.562050E+3,	4.059560E-12
1.562054E+3,	10.549188E-12
1.562058E+3,	0.000000E+0
1.562062E+3,	0.000000E+0
1.562066E+3,	5.111599E-12
1.562070E+3,	19.290892E-12
1.562074E+3,	1.896202E-12
1.562078E+3,	14.725610E-12
1.562082E+3,	32.691611E-12
1.562086E+3,	13.471303E-12
1.562090E+3,	23.663858E-12
1.562094E+3,	32.984518E-12
1.562098E+3,	678.788226E-15
1.562102E+3,	14.158567E-12
1.562106E+3,	2.779837E-12
1.562110E+3,	7.720876E-12
1.562114E+3,	9.258664E-12
1.562118E+3,	0.000000E+0
1.562122E+3,	2.766419E-12
1.562126E+3,	6.902718E-12
1.562130E+3,	3.862873E-12
1.562134E+3,	7.332012E-12
1.562138E+3,	0.000000E+0
1.562142E+3,	14.461915E-12
1.562146E+3,	6.160096E-12
1.562150E+3,	24.689972E-12
1.562154E+3,	0.000000E+0
1.562158E+3,	0.000000E+0
1.562162E+3,	0.000000E+0
1.562166E+3,	3.511446E-12
1.562170E+3,	0.000000E+0
1.562174E+3,	0.000000E+0
1.562178E+3,	1.375085E-12
1.562182E+3,	0.000000E+0
1.562186E+3,	0.000000E+0
1.562190E+3,	4.398054E-12
1.562194E+3,	0.000000E+0
1.562198E+3,	0.000000E+0
1.562202E+3,	3.441953E-12
1.562206E+3,	0.000000E+0
1.562210E+3,	7.619627E-12
1.562214E+3,	0.000000E+0
1.562218E+3,	18.860206E-12
1.562222E+3,	0.000000E+0
1.562226E+3,	7.844639E-12
1.562230E+3,	31.273054E-12
1.562234E+3,	0.000000E+0
1.562238E+3,	1.937945E-12
1.562242E+3,	544.911605E-15
1.562246E+3,	0.000000E+0
1.562250E+3,	7.113335E-12
1.562254E+3,	0.000000E+0
1.562258E+3,	9.033011E-12
1.562262E+3,	236.253577E-15
1.562266E+3,	2.792121E-12
1.562270E+3,	3.619375E-12
1.562274E+3,	10.125268E-12
1.562278E+3,	7.312649E-12
1.562282E+3,	5.824345E-12
1.562286E+3,	9.028058E-12
1.562290E+3,	9.682534E-12
1.562294E+3,	11.769860E-12
1.562298E+3,	6.580435E-12
1.562302E+3,	0.000000E+0
1.562306E+3,	5.650267E-12
1.562310E+3,	26.105152E-12
1.562314E+3,	12.589920E-12
1.562318E+3,	0.000000E+0
1.562322E+3,	13.673251E-12
1.562326E+3,	0.000000E+0
1.562330E+3,	3.639553E-12
1.562334E+3,	602.182499E-15
1.562338E+3,	0.000000E+0
1.562342E+3,	0.000000E+0
1.562346E+3,	10.279886E-12
1.562350E+3,	33.490900E-12
1.562354E+3,	7.895741E-12
1.562358E+3,	0.000000E+0
1.562362E+3,	686.603454E-15
1.562366E+3,	0.000000E+0
1.562370E+3,	0.000000E+0
1.562374E+3,	0.000000E+0
1.562378E+3,	8.440398E-12
1.562382E+3,	6.929179E-12
1.562386E+3,	0.000000E+0
1.562390E+3,	8.523233E-12
1.562394E+3,	0.000000E+0
1.562398E+3,	0.000000E+0
1.562402E+3,	7.169359E-12
1.562406E+3,	0.000000E+0
1.562410E+3,	0.000000E+0
1.562414E+3,	5.165027E-12
1.562418E+3,	0.000000E+0
1.562422E+3,	18.338877E-12
1.562426E+3,	22.744826E-12
1.562430E+3,	14.080422E-12
1.562434E+3,	0.000000E+0
1.562438E+3,	13.015604E-12
1.562442E+3,	3.505743E-12
1.562446E+3,	0.000000E+0
1.562450E+3,	6.902074E-12
1.562454E+3,	3.602519E-12
1.562458E+3,	9.597358E-12
1.562462E+3,	0.000000E+0
1.562466E+3,	0.000000E+0
1.562470E+3,	0.000000E+0
1.562474E+3,	0.000000E+0
1.562478E+3,	3.599140E-12
1.562482E+3,	0.000000E+0
1.562486E+3,	0.000000E+0
1.562490E+3,	0.000000E+0
1.562494E+3,	0.000000E+0
1.562498E+3,	0.000000E+0
1.562502E+3,	0.000000E+0
1.562506E+3,	0.000000E+0
1.562510E+3,	1.670439E-12
1.562514E+3,	1.996496E-12
1.562518E+3,	0.000000E+0
1.562522E+3,	2.478001E-12
1.562526E+3,	17.340082E-12
1.562530E+3,	0.000000E+0
1.562534E+3,	0.000000E+0
1.562538E+3,	0.000000E+0
1.562542E+3,	0.000000E+0
1.562546E+3,	10.818847E-12
1.562550E+3,	2.810249E-12
1.562554E+3,	0.000000E+0
1.562558E+3,	2.257861E-12
1.562562E+3,	0.000000E+0
1.562566E+3,	17.882584E-12
1.562570E+3,	16.668613E-12
1.562574E+3,	25.953834E-12
1.562578E+3,	14.666751E-12
1.562582E+3,	0.000000E+0
1.562586E+3,	5.844186E-12
1.562590E+3,	10.420990E-12
1.562594E+3,	0.000000E+0
1.562598E+3,	0.000000E+0
1.562602E+3,	0.000000E+0
1.562606E+3,	6.702223E-12
1.562610E+3,	0.000000E+0
1.562614E+3,	7.198303E-12
1.562618E+3,	0.000000E+0
1.562622E+3,	17.728791E-12
1.562626E+3,	15.733369E-12
1.562630E+3,	4.364910E-12
1.562634E+3,	0.000000E+0
1.562638E+3,	0.000000E+0
1.562642E+3,	0.000000E+0
1.562646E+3,	17.235291E-12
1.562650E+3,	3.702704E-12
