YOKOGAWA AQ6370D - S/N: 91S206859
#Date: 25/09/2023 Time: 12:18:25,	
A_WL(nm),	A_I(mW)
1.547000E+3,	32.603283E-12
1.547004E+3,	3.856822E-12
1.547008E+3,	14.855466E-12
1.547012E+3,	22.094641E-12
1.547016E+3,	36.471398E-12
1.547020E+3,	39.105196E-12
1.547024E+3,	41.451415E-12
1.547028E+3,	28.088511E-12
1.547032E+3,	23.910892E-12
1.547036E+3,	4.526860E-12
1.547040E+3,	16.207261E-12
1.547044E+3,	8.565202E-12
1.547048E+3,	5.050960E-12
1.547052E+3,	11.114779E-12
1.547056E+3,	14.776640E-12
1.547060E+3,	0.000000E+0
1.547064E+3,	25.140861E-12
1.547068E+3,	12.263355E-12
1.547072E+3,	7.387899E-12
1.547076E+3,	33.165056E-12
1.547080E+3,	20.304601E-12
1.547084E+3,	13.439655E-12
1.547088E+3,	5.640276E-12
1.547092E+3,	0.000000E+0
1.547096E+3,	20.449511E-12
1.547100E+3,	20.938566E-12
1.547104E+3,	0.000000E+0
1.547108E+3,	0.000000E+0
1.547112E+3,	31.067535E-12
1.547116E+3,	16.917413E-12
1.547120E+3,	20.250264E-12
1.547124E+3,	27.839747E-12
1.547128E+3,	31.570020E-12
1.547132E+3,	0.000000E+0
1.547136E+3,	7.534714E-12
1.547140E+3,	13.258523E-12
1.547144E+3,	35.954511E-12
1.547148E+3,	8.274164E-12
1.547152E+3,	17.180532E-12
1.547156E+3,	14.272868E-12
1.547160E+3,	28.455599E-12
1.547164E+3,	22.278954E-12
1.547168E+3,	28.181765E-12
1.547172E+3,	33.867835E-12
1.547176E+3,	21.052097E-12
1.547180E+3,	21.160802E-12
1.547184E+3,	8.268395E-12
1.547188E+3,	13.831453E-12
1.547192E+3,	16.747381E-12
1.547196E+3,	10.145368E-12
1.547200E+3,	1.467090E-12
1.547204E+3,	14.475448E-12
1.547208E+3,	39.551703E-12
1.547212E+3,	47.032578E-12
1.547216E+3,	30.219538E-12
1.547220E+3,	35.310561E-12
1.547224E+3,	10.290308E-12
1.547228E+3,	27.753439E-12
1.547232E+3,	10.021405E-12
1.547236E+3,	36.470076E-12
1.547240E+3,	18.316357E-12
1.547244E+3,	24.566885E-12
1.547248E+3,	24.824798E-12
1.547252E+3,	9.037340E-12
1.547256E+3,	18.044594E-12
1.547260E+3,	32.683526E-12
1.547264E+3,	32.321173E-12
1.547268E+3,	4.106915E-12
1.547272E+3,	3.132945E-12
1.547276E+3,	23.956694E-12
1.547280E+3,	7.864374E-12
1.547284E+3,	1.050630E-12
1.547288E+3,	8.272936E-12
1.547292E+3,	35.083111E-12
1.547296E+3,	12.702858E-12
1.547300E+3,	11.198760E-12
1.547304E+3,	3.533298E-12
1.547308E+3,	21.824452E-12
1.547312E+3,	20.118432E-12
1.547316E+3,	25.333655E-12
1.547320E+3,	22.361704E-12
1.547324E+3,	39.613528E-12
1.547328E+3,	27.836579E-12
1.547332E+3,	29.411983E-12
1.547336E+3,	43.799627E-12
1.547340E+3,	28.051905E-12
1.547344E+3,	43.709024E-12
1.547348E+3,	37.980445E-12
1.547352E+3,	32.479314E-12
1.547356E+3,	45.273283E-12
1.547360E+3,	24.916856E-12
1.547364E+3,	51.048295E-12
1.547368E+3,	21.676377E-12
1.547372E+3,	28.928993E-12
1.547376E+3,	45.829258E-12
1.547380E+3,	23.539612E-12
1.547384E+3,	39.142361E-12
1.547388E+3,	17.257792E-12
1.547392E+3,	49.979179E-12
1.547396E+3,	13.485196E-12
1.547400E+3,	37.628811E-12
1.547404E+3,	42.287146E-12
1.547408E+3,	44.642435E-12
1.547412E+3,	38.302326E-12
1.547416E+3,	49.609981E-12
1.547420E+3,	31.266642E-12
1.547424E+3,	71.052845E-12
1.547428E+3,	63.629785E-12
1.547432E+3,	69.211643E-12
1.547436E+3,	36.183090E-12
1.547440E+3,	47.869903E-12
1.547444E+3,	79.590114E-12
1.547448E+3,	69.757670E-12
1.547452E+3,	60.452862E-12
1.547456E+3,	63.585002E-12
1.547460E+3,	87.311730E-12
1.547464E+3,	87.456718E-12
1.547468E+3,	70.705253E-12
1.547472E+3,	76.675673E-12
1.547476E+3,	70.055929E-12
1.547480E+3,	87.782993E-12
1.547484E+3,	64.146909E-12
1.547488E+3,	91.535037E-12
1.547492E+3,	82.124856E-12
1.547496E+3,	62.787463E-12
1.547500E+3,	91.698162E-12
1.547504E+3,	96.124887E-12
1.547508E+3,	86.616236E-12
1.547512E+3,	79.326959E-12
1.547516E+3,	71.776277E-12
1.547520E+3,	84.681217E-12
1.547524E+3,	88.963533E-12
1.547528E+3,	120.854216E-12
1.547532E+3,	107.459763E-12
1.547536E+3,	116.611795E-12
1.547540E+3,	149.209548E-12
1.547544E+3,	149.046385E-12
1.547548E+3,	178.247402E-12
1.547552E+3,	186.847453E-12
1.547556E+3,	184.254870E-12
1.547560E+3,	204.107212E-12
1.547564E+3,	223.107484E-12
1.547568E+3,	217.446646E-12
1.547572E+3,	198.549910E-12
1.547576E+3,	216.344984E-12
1.547580E+3,	239.642039E-12
1.547584E+3,	220.333550E-12
1.547588E+3,	224.843675E-12
1.547592E+3,	219.824961E-12
1.547596E+3,	220.605561E-12
1.547600E+3,	222.788398E-12
1.547604E+3,	219.336412E-12
1.547608E+3,	227.511416E-12
1.547612E+3,	229.728529E-12
1.547616E+3,	243.106457E-12
1.547620E+3,	231.355516E-12
1.547624E+3,	253.152789E-12
1.547628E+3,	250.279042E-12
1.547632E+3,	285.570966E-12
1.547636E+3,	259.880602E-12
1.547640E+3,	316.622441E-12
1.547644E+3,	327.103941E-12
1.547648E+3,	346.219562E-12
1.547652E+3,	373.806196E-12
1.547656E+3,	407.456534E-12
1.547660E+3,	449.346550E-12
1.547664E+3,	462.149217E-12
1.547668E+3,	496.908236E-12
1.547672E+3,	519.650880E-12
1.547676E+3,	534.504649E-12
1.547680E+3,	556.066278E-12
1.547684E+3,	572.582820E-12
1.547688E+3,	574.737791E-12
1.547692E+3,	575.868771E-12
1.547696E+3,	598.736009E-12
1.547700E+3,	597.593478E-12
1.547704E+3,	589.596316E-12
1.547708E+3,	602.602738E-12
1.547712E+3,	580.215219E-12
1.547716E+3,	587.311439E-12
1.547720E+3,	593.059922E-12
1.547724E+3,	598.873827E-12
1.547728E+3,	600.360028E-12
1.547732E+3,	614.051809E-12
1.547736E+3,	632.284678E-12
1.547740E+3,	670.955743E-12
1.547744E+3,	711.132101E-12
1.547748E+3,	759.585005E-12
1.547752E+3,	821.860182E-12
1.547756E+3,	850.489228E-12
1.547760E+3,	894.529066E-12
1.547764E+3,	943.921364E-12
1.547768E+3,	1.000113E-9
1.547772E+3,	1.039357E-9
1.547776E+3,	1.091131E-9
1.547780E+3,	1.127135E-9
1.547784E+3,	1.161925E-9
1.547788E+3,	1.222311E-9
1.547792E+3,	1.211700E-9
1.547796E+3,	1.227295E-9
1.547800E+3,	1.226969E-9
1.547804E+3,	1.264044E-9
1.547808E+3,	1.238156E-9
1.547812E+3,	1.220820E-9
1.547816E+3,	1.234007E-9
1.547820E+3,	1.221074E-9
1.547824E+3,	1.208123E-9
1.547828E+3,	1.200398E-9
1.547832E+3,	1.211701E-9
1.547836E+3,	1.206261E-9
1.547840E+3,	1.237701E-9
1.547844E+3,	1.264897E-9
1.547848E+3,	1.321670E-9
1.547852E+3,	1.406316E-9
1.547856E+3,	1.463962E-9
1.547860E+3,	1.535294E-9
1.547864E+3,	1.607410E-9
1.547868E+3,	1.719051E-9
1.547872E+3,	1.851656E-9
1.547876E+3,	1.941251E-9
1.547880E+3,	2.037207E-9
1.547884E+3,	2.126523E-9
1.547888E+3,	2.223069E-9
1.547892E+3,	2.312908E-9
1.547896E+3,	2.349041E-9
1.547900E+3,	2.377361E-9
1.547904E+3,	2.387448E-9
1.547908E+3,	2.417228E-9
1.547912E+3,	2.416080E-9
1.547916E+3,	2.400021E-9
1.547920E+3,	2.348225E-9
1.547924E+3,	2.326181E-9
1.547928E+3,	2.270734E-9
1.547932E+3,	2.221744E-9
1.547936E+3,	2.175422E-9
1.547940E+3,	2.128192E-9
1.547944E+3,	2.108217E-9
1.547948E+3,	2.097559E-9
1.547952E+3,	2.106579E-9
1.547956E+3,	2.143762E-9
1.547960E+3,	2.183684E-9
1.547964E+3,	2.292293E-9
1.547968E+3,	2.402848E-9
1.547972E+3,	2.535900E-9
1.547976E+3,	2.684498E-9
1.547980E+3,	2.820780E-9
1.547984E+3,	2.958894E-9
1.547988E+3,	3.170967E-9
1.547992E+3,	3.373866E-9
1.547996E+3,	3.468889E-9
1.548000E+3,	3.588930E-9
1.548004E+3,	3.695669E-9
1.548008E+3,	3.816128E-9
1.548012E+3,	3.920995E-9
1.548016E+3,	3.944370E-9
1.548020E+3,	3.945689E-9
1.548024E+3,	3.956800E-9
1.548028E+3,	3.950832E-9
1.548032E+3,	3.927744E-9
1.548036E+3,	3.874762E-9
1.548040E+3,	3.797403E-9
1.548044E+3,	3.749375E-9
1.548048E+3,	3.668037E-9
1.548052E+3,	3.634754E-9
1.548056E+3,	3.576270E-9
1.548060E+3,	3.585872E-9
1.548064E+3,	3.624824E-9
1.548068E+3,	3.688600E-9
1.548072E+3,	3.805037E-9
1.548076E+3,	3.891478E-9
1.548080E+3,	4.013488E-9
1.548084E+3,	4.188811E-9
1.548088E+3,	4.438545E-9
1.548092E+3,	4.638578E-9
1.548096E+3,	4.837220E-9
1.548100E+3,	5.045038E-9
1.548104E+3,	5.241399E-9
1.548108E+3,	5.409035E-9
1.548112E+3,	5.544069E-9
1.548116E+3,	5.670846E-9
1.548120E+3,	5.756484E-9
1.548124E+3,	5.807230E-9
1.548128E+3,	5.842622E-9
1.548132E+3,	5.829122E-9
1.548136E+3,	5.806021E-9
1.548140E+3,	5.746224E-9
1.548144E+3,	5.640014E-9
1.548148E+3,	5.557005E-9
1.548152E+3,	5.464374E-9
1.548156E+3,	5.397657E-9
1.548160E+3,	5.327090E-9
1.548164E+3,	5.271501E-9
1.548168E+3,	5.283240E-9
1.548172E+3,	5.287212E-9
1.548176E+3,	5.316212E-9
1.548180E+3,	5.405537E-9
1.548184E+3,	5.587139E-9
1.548188E+3,	5.771588E-9
1.548192E+3,	5.972144E-9
1.548196E+3,	6.225317E-9
1.548200E+3,	6.523270E-9
1.548204E+3,	6.865222E-9
1.548208E+3,	7.195976E-9
1.548212E+3,	7.433331E-9
1.548216E+3,	7.709797E-9
1.548220E+3,	7.978115E-9
1.548224E+3,	8.175424E-9
1.548228E+3,	8.307647E-9
1.548232E+3,	8.380973E-9
1.548236E+3,	8.429306E-9
1.548240E+3,	8.417961E-9
1.548244E+3,	8.377259E-9
1.548248E+3,	8.318407E-9
1.548252E+3,	8.215560E-9
1.548256E+3,	8.056976E-9
1.548260E+3,	7.879409E-9
1.548264E+3,	7.714115E-9
1.548268E+3,	7.552188E-9
1.548272E+3,	7.446197E-9
1.548276E+3,	7.308161E-9
1.548280E+3,	7.248321E-9
1.548284E+3,	7.148318E-9
1.548288E+3,	7.178153E-9
1.548292E+3,	7.208718E-9
1.548296E+3,	7.288546E-9
1.548300E+3,	7.434198E-9
1.548304E+3,	7.588061E-9
1.548308E+3,	7.812149E-9
1.548312E+3,	8.053398E-9
1.548316E+3,	8.354303E-9
1.548320E+3,	8.675431E-9
1.548324E+3,	8.922938E-9
1.548328E+3,	9.138999E-9
1.548332E+3,	9.342687E-9
1.548336E+3,	9.557642E-9
1.548340E+3,	9.683887E-9
1.548344E+3,	9.783479E-9
1.548348E+3,	9.799220E-9
1.548352E+3,	9.755415E-9
1.548356E+3,	9.656133E-9
1.548360E+3,	9.560275E-9
1.548364E+3,	9.397835E-9
1.548368E+3,	9.234310E-9
1.548372E+3,	9.053677E-9
1.548376E+3,	8.873698E-9
1.548380E+3,	8.636123E-9
1.548384E+3,	8.528137E-9
1.548388E+3,	8.379876E-9
1.548392E+3,	8.249389E-9
1.548396E+3,	8.214814E-9
1.548400E+3,	8.221471E-9
1.548404E+3,	8.251091E-9
1.548408E+3,	8.375787E-9
1.548412E+3,	8.550981E-9
1.548416E+3,	8.789679E-9
1.548420E+3,	8.994132E-9
1.548424E+3,	9.255163E-9
1.548428E+3,	9.499468E-9
1.548432E+3,	9.831091E-9
1.548436E+3,	10.139070E-9
1.548440E+3,	10.361154E-9
1.548444E+3,	10.541581E-9
1.548448E+3,	10.696269E-9
1.548452E+3,	10.779249E-9
1.548456E+3,	10.766582E-9
1.548460E+3,	10.690113E-9
1.548464E+3,	10.573805E-9
1.548468E+3,	10.401089E-9
1.548472E+3,	10.141867E-9
1.548476E+3,	9.794422E-9
1.548480E+3,	9.557662E-9
1.548484E+3,	9.305755E-9
1.548488E+3,	9.015878E-9
1.548492E+3,	8.732911E-9
1.548496E+3,	8.476949E-9
1.548500E+3,	8.315362E-9
1.548504E+3,	8.155163E-9
1.548508E+3,	8.101819E-9
1.548512E+3,	8.073829E-9
1.548516E+3,	8.153399E-9
1.548520E+3,	8.270478E-9
1.548524E+3,	8.436521E-9
1.548528E+3,	8.742536E-9
1.548532E+3,	9.035839E-9
1.548536E+3,	9.314562E-9
1.548540E+3,	9.628762E-9
1.548544E+3,	9.983092E-9
1.548548E+3,	10.374730E-9
1.548552E+3,	10.712750E-9
1.548556E+3,	10.962051E-9
1.548560E+3,	11.141286E-9
1.548564E+3,	11.272292E-9
1.548568E+3,	11.322463E-9
1.548572E+3,	11.315405E-9
1.548576E+3,	11.216841E-9
1.548580E+3,	11.077156E-9
1.548584E+3,	10.864030E-9
1.548588E+3,	10.591810E-9
1.548592E+3,	10.330630E-9
1.548596E+3,	10.115580E-9
1.548600E+3,	9.862392E-9
1.548604E+3,	9.589689E-9
1.548608E+3,	9.380257E-9
1.548612E+3,	9.206407E-9
1.548616E+3,	9.075126E-9
1.548620E+3,	9.003911E-9
1.548624E+3,	9.004205E-9
1.548628E+3,	9.023709E-9
1.548632E+3,	9.156527E-9
1.548636E+3,	9.303433E-9
1.548640E+3,	9.493098E-9
1.548644E+3,	9.752766E-9
1.548648E+3,	10.006659E-9
1.548652E+3,	10.258315E-9
1.548656E+3,	10.532181E-9
1.548660E+3,	10.801162E-9
1.548664E+3,	11.058569E-9
1.548668E+3,	11.221066E-9
1.548672E+3,	11.339713E-9
1.548676E+3,	11.439673E-9
1.548680E+3,	11.447919E-9
1.548684E+3,	11.403918E-9
1.548688E+3,	11.325514E-9
1.548692E+3,	11.178106E-9
1.548696E+3,	10.942655E-9
1.548700E+3,	10.739778E-9
1.548704E+3,	10.449488E-9
1.548708E+3,	10.185409E-9
1.548712E+3,	9.981114E-9
1.548716E+3,	9.828718E-9
1.548720E+3,	9.688148E-9
1.548724E+3,	9.592726E-9
1.548728E+3,	9.587187E-9
1.548732E+3,	9.606485E-9
1.548736E+3,	9.711949E-9
1.548740E+3,	9.865655E-9
1.548744E+3,	10.097711E-9
1.548748E+3,	10.314964E-9
1.548752E+3,	10.579468E-9
1.548756E+3,	10.849178E-9
1.548760E+3,	11.196035E-9
1.548764E+3,	11.550519E-9
1.548768E+3,	11.793874E-9
1.548772E+3,	12.044693E-9
1.548776E+3,	12.290647E-9
1.548780E+3,	12.499235E-9
1.548784E+3,	12.616306E-9
1.548788E+3,	12.640061E-9
1.548792E+3,	12.639305E-9
1.548796E+3,	12.551317E-9
1.548800E+3,	12.344755E-9
1.548804E+3,	12.102251E-9
1.548808E+3,	11.835993E-9
1.548812E+3,	11.550540E-9
1.548816E+3,	11.192983E-9
1.548820E+3,	10.850289E-9
1.548824E+3,	10.581264E-9
1.548828E+3,	10.307329E-9
1.548832E+3,	10.085268E-9
1.548836E+3,	9.901160E-9
1.548840E+3,	9.798904E-9
1.548844E+3,	9.757912E-9
1.548848E+3,	9.762304E-9
1.548852E+3,	9.831368E-9
1.548856E+3,	9.963681E-9
1.548860E+3,	10.108069E-9
1.548864E+3,	10.269863E-9
1.548868E+3,	10.508152E-9
1.548872E+3,	10.722409E-9
1.548876E+3,	11.020506E-9
1.548880E+3,	11.330455E-9
1.548884E+3,	11.496070E-9
1.548888E+3,	11.683187E-9
1.548892E+3,	11.827798E-9
1.548896E+3,	11.965952E-9
1.548900E+3,	12.053121E-9
1.548904E+3,	12.028888E-9
1.548908E+3,	11.971211E-9
1.548912E+3,	11.848966E-9
1.548916E+3,	11.677609E-9
1.548920E+3,	11.536185E-9
1.548924E+3,	11.319285E-9
1.548928E+3,	11.051929E-9
1.548932E+3,	10.825513E-9
1.548936E+3,	10.620534E-9
1.548940E+3,	10.453643E-9
1.548944E+3,	10.348739E-9
1.548948E+3,	10.281974E-9
1.548952E+3,	10.211876E-9
1.548956E+3,	10.218534E-9
1.548960E+3,	10.299355E-9
1.548964E+3,	10.388117E-9
1.548968E+3,	10.521321E-9
1.548972E+3,	10.705544E-9
1.548976E+3,	10.882342E-9
1.548980E+3,	11.050303E-9
1.548984E+3,	11.234022E-9
1.548988E+3,	11.414899E-9
1.548992E+3,	11.592045E-9
1.548996E+3,	11.702005E-9
1.549000E+3,	11.754691E-9
1.549004E+3,	11.803556E-9
1.549008E+3,	11.834228E-9
1.549012E+3,	11.768171E-9
1.549016E+3,	11.702035E-9
1.549020E+3,	11.577477E-9
1.549024E+3,	11.394924E-9
1.549028E+3,	11.131765E-9
1.549032E+3,	10.857755E-9
1.549036E+3,	10.592927E-9
1.549040E+3,	10.324938E-9
1.549044E+3,	10.038765E-9
1.549048E+3,	9.779618E-9
1.549052E+3,	9.550444E-9
1.549056E+3,	9.407800E-9
1.549060E+3,	9.331125E-9
1.549064E+3,	9.308755E-9
1.549068E+3,	9.349157E-9
1.549072E+3,	9.449128E-9
1.549076E+3,	9.588738E-9
1.549080E+3,	9.774363E-9
1.549084E+3,	10.004455E-9
1.549088E+3,	10.313836E-9
1.549092E+3,	10.553153E-9
1.549096E+3,	10.818960E-9
1.549100E+3,	11.059512E-9
1.549104E+3,	11.308700E-9
1.549108E+3,	11.554617E-9
1.549112E+3,	11.709342E-9
1.549116E+3,	11.831478E-9
1.549120E+3,	11.939431E-9
1.549124E+3,	11.979281E-9
1.549128E+3,	11.978083E-9
1.549132E+3,	11.904687E-9
1.549136E+3,	11.774312E-9
1.549140E+3,	11.577729E-9
1.549144E+3,	11.400282E-9
1.549148E+3,	11.177931E-9
1.549152E+3,	10.964318E-9
1.549156E+3,	10.641298E-9
1.549160E+3,	10.378853E-9
1.549164E+3,	10.168246E-9
1.549168E+3,	9.995468E-9
1.549172E+3,	9.824426E-9
1.549176E+3,	9.668944E-9
1.549180E+3,	9.594460E-9
1.549184E+3,	9.574277E-9
1.549188E+3,	9.599959E-9
1.549192E+3,	9.674518E-9
1.549196E+3,	9.777822E-9
1.549200E+3,	9.928110E-9
1.549204E+3,	10.065560E-9
1.549208E+3,	10.226429E-9
1.549212E+3,	10.414395E-9
1.549216E+3,	10.598178E-9
1.549220E+3,	10.699145E-9
1.549224E+3,	10.803468E-9
1.549228E+3,	10.892410E-9
1.549232E+3,	10.946052E-9
1.549236E+3,	10.926938E-9
1.549240E+3,	10.910728E-9
1.549244E+3,	10.868821E-9
1.549248E+3,	10.801924E-9
1.549252E+3,	10.673266E-9
1.549256E+3,	10.518819E-9
1.549260E+3,	10.413263E-9
1.549264E+3,	10.274000E-9
1.549268E+3,	10.118467E-9
1.549272E+3,	9.964185E-9
1.549276E+3,	9.856283E-9
1.549280E+3,	9.780758E-9
1.549284E+3,	9.706072E-9
1.549288E+3,	9.674041E-9
1.549292E+3,	9.698013E-9
1.549296E+3,	9.740687E-9
1.549300E+3,	9.823584E-9
1.549304E+3,	9.967240E-9
1.549308E+3,	10.121037E-9
1.549312E+3,	10.239175E-9
1.549316E+3,	10.363005E-9
1.549320E+3,	10.487571E-9
1.549324E+3,	10.587433E-9
1.549328E+3,	10.627799E-9
1.549332E+3,	10.634405E-9
1.549336E+3,	10.622468E-9
1.549340E+3,	10.560579E-9
1.549344E+3,	10.487898E-9
1.549348E+3,	10.342269E-9
1.549352E+3,	10.240939E-9
1.549356E+3,	10.050376E-9
1.549360E+3,	9.837557E-9
1.549364E+3,	9.608487E-9
1.549368E+3,	9.466372E-9
1.549372E+3,	9.236077E-9
1.549376E+3,	9.045542E-9
1.549380E+3,	8.817714E-9
1.549384E+3,	8.606287E-9
1.549388E+3,	8.480841E-9
1.549392E+3,	8.417785E-9
1.549396E+3,	8.349764E-9
1.549400E+3,	8.357738E-9
1.549404E+3,	8.390580E-9
1.549408E+3,	8.464099E-9
1.549412E+3,	8.605235E-9
1.549416E+3,	8.821195E-9
1.549420E+3,	9.040622E-9
1.549424E+3,	9.230390E-9
1.549428E+3,	9.406359E-9
1.549432E+3,	9.609519E-9
1.549436E+3,	9.862090E-9
1.549440E+3,	10.015702E-9
1.549444E+3,	10.136791E-9
1.549448E+3,	10.260503E-9
1.549452E+3,	10.319998E-9
1.549456E+3,	10.314095E-9
1.549460E+3,	10.294010E-9
1.549464E+3,	10.220129E-9
1.549468E+3,	10.127608E-9
1.549472E+3,	10.015809E-9
1.549476E+3,	9.883299E-9
1.549480E+3,	9.776164E-9
1.549484E+3,	9.664132E-9
1.549488E+3,	9.543259E-9
1.549492E+3,	9.413054E-9
1.549496E+3,	9.275637E-9
1.549500E+3,	9.176773E-9
1.549504E+3,	9.102454E-9
1.549508E+3,	9.030452E-9
1.549512E+3,	9.017806E-9
1.549516E+3,	9.047864E-9
1.549520E+3,	9.039556E-9
1.549524E+3,	9.121780E-9
1.549528E+3,	9.221411E-9
1.549532E+3,	9.349849E-9
1.549536E+3,	9.443849E-9
1.549540E+3,	9.577611E-9
1.549544E+3,	9.660164E-9
1.549548E+3,	9.772744E-9
1.549552E+3,	9.792881E-9
1.549556E+3,	9.827539E-9
1.549560E+3,	9.849697E-9
1.549564E+3,	9.803616E-9
1.549568E+3,	9.721230E-9
1.549572E+3,	9.660293E-9
1.549576E+3,	9.561943E-9
1.549580E+3,	9.470778E-9
1.549584E+3,	9.376056E-9
1.549588E+3,	9.249738E-9
1.549592E+3,	9.176670E-9
1.549596E+3,	9.072041E-9
1.549600E+3,	8.975874E-9
1.549604E+3,	8.916656E-9
1.549608E+3,	8.861692E-9
1.549612E+3,	8.836344E-9
1.549616E+3,	8.848970E-9
1.549620E+3,	8.880424E-9
1.549624E+3,	8.967104E-9
1.549628E+3,	9.060256E-9
1.549632E+3,	9.185276E-9
1.549636E+3,	9.312873E-9
1.549640E+3,	9.522640E-9
1.549644E+3,	9.678867E-9
1.549648E+3,	9.862641E-9
1.549652E+3,	10.040347E-9
1.549656E+3,	10.239897E-9
1.549660E+3,	10.370002E-9
1.549664E+3,	10.433186E-9
1.549668E+3,	10.476912E-9
1.549672E+3,	10.513294E-9
1.549676E+3,	10.437939E-9
1.549680E+3,	10.365599E-9
1.549684E+3,	10.294922E-9
1.549688E+3,	10.143974E-9
1.549692E+3,	10.030148E-9
1.549696E+3,	9.861634E-9
1.549700E+3,	9.681672E-9
1.549704E+3,	9.553152E-9
1.549708E+3,	9.418713E-9
1.549712E+3,	9.268558E-9
1.549716E+3,	9.137633E-9
1.549720E+3,	9.065215E-9
1.549724E+3,	9.010080E-9
1.549728E+3,	8.980574E-9
1.549732E+3,	8.963308E-9
1.549736E+3,	8.998598E-9
1.549740E+3,	9.024521E-9
1.549744E+3,	9.056221E-9
1.549748E+3,	9.112029E-9
1.549752E+3,	9.251540E-9
1.549756E+3,	9.366586E-9
1.549760E+3,	9.478881E-9
1.549764E+3,	9.599365E-9
1.549768E+3,	9.691447E-9
1.549772E+3,	9.807492E-9
1.549776E+3,	9.855300E-9
1.549780E+3,	9.914380E-9
1.549784E+3,	9.943233E-9
1.549788E+3,	9.903000E-9
1.549792E+3,	9.857684E-9
1.549796E+3,	9.787883E-9
1.549800E+3,	9.725585E-9
1.549804E+3,	9.598146E-9
1.549808E+3,	9.477264E-9
1.549812E+3,	9.402604E-9
1.549816E+3,	9.318418E-9
1.549820E+3,	9.227684E-9
1.549824E+3,	9.165326E-9
1.549828E+3,	9.090323E-9
1.549832E+3,	9.077199E-9
1.549836E+3,	9.035774E-9
1.549840E+3,	9.032688E-9
1.549844E+3,	9.015709E-9
1.549848E+3,	9.005716E-9
1.549852E+3,	9.022753E-9
1.549856E+3,	9.039963E-9
1.549860E+3,	9.089824E-9
1.549864E+3,	9.139634E-9
1.549868E+3,	9.153781E-9
1.549872E+3,	9.178022E-9
1.549876E+3,	9.206650E-9
1.549880E+3,	9.229559E-9
1.549884E+3,	9.227203E-9
1.549888E+3,	9.256812E-9
1.549892E+3,	9.228108E-9
1.549896E+3,	9.164941E-9
1.549900E+3,	9.108396E-9
1.549904E+3,	9.016693E-9
1.549908E+3,	8.934223E-9
1.549912E+3,	8.838601E-9
1.549916E+3,	8.714067E-9
1.549920E+3,	8.618406E-9
1.549924E+3,	8.529740E-9
1.549928E+3,	8.431194E-9
1.549932E+3,	8.365665E-9
1.549936E+3,	8.330962E-9
1.549940E+3,	8.346817E-9
1.549944E+3,	8.317980E-9
1.549948E+3,	8.381821E-9
1.549952E+3,	8.462222E-9
1.549956E+3,	8.549896E-9
1.549960E+3,	8.661511E-9
1.549964E+3,	8.757657E-9
1.549968E+3,	8.850646E-9
1.549972E+3,	8.976116E-9
1.549976E+3,	9.088513E-9
1.549980E+3,	9.165265E-9
1.549984E+3,	9.240649E-9
1.549988E+3,	9.286423E-9
1.549992E+3,	9.338558E-9
1.549996E+3,	9.355067E-9
1.550000E+3,	9.326156E-9
1.550004E+3,	9.296379E-9
1.550008E+3,	9.232711E-9
1.550012E+3,	9.113133E-9
1.550016E+3,	9.012919E-9
1.550020E+3,	8.901181E-9
1.550024E+3,	8.737455E-9
1.550028E+3,	8.556575E-9
1.550032E+3,	8.400988E-9
1.550036E+3,	8.305584E-9
1.550040E+3,	8.217924E-9
1.550044E+3,	8.121942E-9
1.550048E+3,	8.050436E-9
1.550052E+3,	8.066111E-9
1.550056E+3,	8.088133E-9
1.550060E+3,	8.130713E-9
1.550064E+3,	8.235759E-9
1.550068E+3,	8.323295E-9
1.550072E+3,	8.429048E-9
1.550076E+3,	8.542310E-9
1.550080E+3,	8.682616E-9
1.550084E+3,	8.826626E-9
1.550088E+3,	8.931335E-9
1.550092E+3,	9.017795E-9
1.550096E+3,	9.068868E-9
1.550100E+3,	9.172916E-9
1.550104E+3,	9.246622E-9
1.550108E+3,	9.304708E-9
1.550112E+3,	9.328548E-9
1.550116E+3,	9.298460E-9
1.550120E+3,	9.251370E-9
1.550124E+3,	9.212003E-9
1.550128E+3,	9.122373E-9
1.550132E+3,	8.987937E-9
1.550136E+3,	8.834857E-9
1.550140E+3,	8.710079E-9
1.550144E+3,	8.601918E-9
1.550148E+3,	8.482754E-9
1.550152E+3,	8.353529E-9
1.550156E+3,	8.253419E-9
1.550160E+3,	8.213243E-9
1.550164E+3,	8.171202E-9
1.550168E+3,	8.186966E-9
1.550172E+3,	8.246560E-9
1.550176E+3,	8.365294E-9
1.550180E+3,	8.425149E-9
1.550184E+3,	8.520679E-9
1.550188E+3,	8.652292E-9
1.550192E+3,	8.782712E-9
1.550196E+3,	8.903069E-9
1.550200E+3,	8.983902E-9
1.550204E+3,	9.088712E-9
1.550208E+3,	9.195787E-9
1.550212E+3,	9.245863E-9
1.550216E+3,	9.247877E-9
1.550220E+3,	9.251118E-9
1.550224E+3,	9.234463E-9
1.550228E+3,	9.209819E-9
1.550232E+3,	9.152348E-9
1.550236E+3,	9.073393E-9
1.550240E+3,	8.993047E-9
1.550244E+3,	8.925705E-9
1.550248E+3,	8.807960E-9
1.550252E+3,	8.715664E-9
1.550256E+3,	8.616303E-9
1.550260E+3,	8.535953E-9
1.550264E+3,	8.487159E-9
1.550268E+3,	8.452698E-9
1.550272E+3,	8.421704E-9
1.550276E+3,	8.435092E-9
1.550280E+3,	8.481352E-9
1.550284E+3,	8.529949E-9
1.550288E+3,	8.601905E-9
1.550292E+3,	8.697031E-9
1.550296E+3,	8.867328E-9
1.550300E+3,	8.973528E-9
1.550304E+3,	9.081658E-9
1.550308E+3,	9.181953E-9
1.550312E+3,	9.278178E-9
1.550316E+3,	9.339671E-9
1.550320E+3,	9.379411E-9
1.550324E+3,	9.394176E-9
1.550328E+3,	9.402900E-9
1.550332E+3,	9.372546E-9
1.550336E+3,	9.296526E-9
1.550340E+3,	9.275370E-9
1.550344E+3,	9.169244E-9
1.550348E+3,	9.084764E-9
1.550352E+3,	8.975990E-9
1.550356E+3,	8.885218E-9
1.550360E+3,	8.846556E-9
1.550364E+3,	8.756443E-9
1.550368E+3,	8.658412E-9
1.550372E+3,	8.582274E-9
1.550376E+3,	8.580304E-9
1.550380E+3,	8.592367E-9
1.550384E+3,	8.600601E-9
1.550388E+3,	8.622780E-9
1.550392E+3,	8.728684E-9
1.550396E+3,	8.825556E-9
1.550400E+3,	8.952765E-9
1.550404E+3,	9.096126E-9
1.550408E+3,	9.246588E-9
1.550412E+3,	9.342789E-9
1.550416E+3,	9.478924E-9
1.550420E+3,	9.581370E-9
1.550424E+3,	9.674001E-9
1.550428E+3,	9.727241E-9
1.550432E+3,	9.757370E-9
1.550436E+3,	9.716300E-9
1.550440E+3,	9.667297E-9
1.550444E+3,	9.576608E-9
1.550448E+3,	9.485687E-9
1.550452E+3,	9.390642E-9
1.550456E+3,	9.261636E-9
1.550460E+3,	9.133882E-9
1.550464E+3,	9.020412E-9
1.550468E+3,	8.908448E-9
1.550472E+3,	8.789819E-9
1.550476E+3,	8.667872E-9
1.550480E+3,	8.599422E-9
1.550484E+3,	8.564129E-9
1.550488E+3,	8.544203E-9
1.550492E+3,	8.573019E-9
1.550496E+3,	8.620218E-9
1.550500E+3,	8.681340E-9
1.550504E+3,	8.757911E-9
1.550508E+3,	8.872114E-9
1.550512E+3,	8.980982E-9
1.550516E+3,	9.132827E-9
1.550520E+3,	9.298709E-9
1.550524E+3,	9.414105E-9
1.550528E+3,	9.584236E-9
1.550532E+3,	9.717166E-9
1.550536E+3,	9.773037E-9
1.550540E+3,	9.809409E-9
1.550544E+3,	9.829562E-9
1.550548E+3,	9.761373E-9
1.550552E+3,	9.740909E-9
1.550556E+3,	9.654637E-9
1.550560E+3,	9.556979E-9
1.550564E+3,	9.418425E-9
1.550568E+3,	9.295676E-9
1.550572E+3,	9.150366E-9
1.550576E+3,	9.012429E-9
1.550580E+3,	8.872819E-9
1.550584E+3,	8.771362E-9
1.550588E+3,	8.703381E-9
1.550592E+3,	8.625105E-9
1.550596E+3,	8.566432E-9
1.550600E+3,	8.593699E-9
1.550604E+3,	8.601775E-9
1.550608E+3,	8.642230E-9
1.550612E+3,	8.688475E-9
1.550616E+3,	8.802658E-9
1.550620E+3,	8.879203E-9
1.550624E+3,	8.984647E-9
1.550628E+3,	9.099896E-9
1.550632E+3,	9.218682E-9
1.550636E+3,	9.390295E-9
1.550640E+3,	9.480782E-9
1.550644E+3,	9.601254E-9
1.550648E+3,	9.648827E-9
1.550652E+3,	9.724065E-9
1.550656E+3,	9.733203E-9
1.550660E+3,	9.717091E-9
1.550664E+3,	9.672101E-9
1.550668E+3,	9.551846E-9
1.550672E+3,	9.389326E-9
1.550676E+3,	9.232974E-9
1.550680E+3,	9.087974E-9
1.550684E+3,	8.941901E-9
1.550688E+3,	8.765697E-9
1.550692E+3,	8.610140E-9
1.550696E+3,	8.471117E-9
1.550700E+3,	8.359364E-9
1.550704E+3,	8.280555E-9
1.550708E+3,	8.199540E-9
1.550712E+3,	8.211454E-9
1.550716E+3,	8.187976E-9
1.550720E+3,	8.241724E-9
1.550724E+3,	8.312823E-9
1.550728E+3,	8.420502E-9
1.550732E+3,	8.524626E-9
1.550736E+3,	8.625299E-9
1.550740E+3,	8.834597E-9
1.550744E+3,	9.031793E-9
1.550748E+3,	9.149997E-9
1.550752E+3,	9.307362E-9
1.550756E+3,	9.448817E-9
1.550760E+3,	9.558560E-9
1.550764E+3,	9.621221E-9
1.550768E+3,	9.637345E-9
1.550772E+3,	9.603071E-9
1.550776E+3,	9.582436E-9
1.550780E+3,	9.506079E-9
1.550784E+3,	9.348706E-9
1.550788E+3,	9.213515E-9
1.550792E+3,	9.087518E-9
1.550796E+3,	8.914121E-9
1.550800E+3,	8.743026E-9
1.550804E+3,	8.617249E-9
1.550808E+3,	8.538772E-9
1.550812E+3,	8.422589E-9
1.550816E+3,	8.349412E-9
1.550820E+3,	8.330629E-9
1.550824E+3,	8.346495E-9
1.550828E+3,	8.401222E-9
1.550832E+3,	8.495972E-9
1.550836E+3,	8.603928E-9
1.550840E+3,	8.751598E-9
1.550844E+3,	8.864131E-9
1.550848E+3,	9.045982E-9
1.550852E+3,	9.215348E-9
1.550856E+3,	9.368460E-9
1.550860E+3,	9.506454E-9
1.550864E+3,	9.623983E-9
1.550868E+3,	9.749867E-9
1.550872E+3,	9.832335E-9
1.550876E+3,	9.869413E-9
1.550880E+3,	9.893437E-9
1.550884E+3,	9.814784E-9
1.550888E+3,	9.709770E-9
1.550892E+3,	9.635729E-9
1.550896E+3,	9.502861E-9
1.550900E+3,	9.305672E-9
1.550904E+3,	9.101879E-9
1.550908E+3,	8.886226E-9
1.550912E+3,	8.742209E-9
1.550916E+3,	8.603228E-9
1.550920E+3,	8.452331E-9
1.550924E+3,	8.407586E-9
1.550928E+3,	8.389317E-9
1.550932E+3,	8.361353E-9
1.550936E+3,	8.411803E-9
1.550940E+3,	8.487681E-9
1.550944E+3,	8.624735E-9
1.550948E+3,	8.750450E-9
1.550952E+3,	8.899581E-9
1.550956E+3,	9.094726E-9
1.550960E+3,	9.322824E-9
1.550964E+3,	9.502604E-9
1.550968E+3,	9.627608E-9
1.550972E+3,	9.822066E-9
1.550976E+3,	9.953546E-9
1.550980E+3,	10.056853E-9
1.550984E+3,	10.146732E-9
1.550988E+3,	10.171757E-9
1.550992E+3,	10.169363E-9
1.550996E+3,	10.135704E-9
1.551000E+3,	10.062546E-9
1.551004E+3,	9.936681E-9
1.551008E+3,	9.779593E-9
1.551012E+3,	9.616392E-9
1.551016E+3,	9.462250E-9
1.551020E+3,	9.286914E-9
1.551024E+3,	9.129125E-9
1.551028E+3,	8.957259E-9
1.551032E+3,	8.843285E-9
1.551036E+3,	8.762473E-9
1.551040E+3,	8.729045E-9
1.551044E+3,	8.750053E-9
1.551048E+3,	8.806932E-9
1.551052E+3,	8.902154E-9
1.551056E+3,	9.008950E-9
1.551060E+3,	9.178421E-9
1.551064E+3,	9.377877E-9
1.551068E+3,	9.541763E-9
1.551072E+3,	9.696329E-9
1.551076E+3,	9.845360E-9
1.551080E+3,	10.022686E-9
1.551084E+3,	10.131819E-9
1.551088E+3,	10.204126E-9
1.551092E+3,	10.230591E-9
1.551096E+3,	10.268206E-9
1.551100E+3,	10.258831E-9
1.551104E+3,	10.239077E-9
1.551108E+3,	10.110850E-9
1.551112E+3,	9.977690E-9
1.551116E+3,	9.815175E-9
1.551120E+3,	9.679332E-9
1.551124E+3,	9.451857E-9
1.551128E+3,	9.192989E-9
1.551132E+3,	8.980590E-9
1.551136E+3,	8.793749E-9
1.551140E+3,	8.637225E-9
1.551144E+3,	8.475682E-9
1.551148E+3,	8.355813E-9
1.551152E+3,	8.295800E-9
1.551156E+3,	8.269393E-9
1.551160E+3,	8.327715E-9
1.551164E+3,	8.430149E-9
1.551168E+3,	8.566564E-9
1.551172E+3,	8.665623E-9
1.551176E+3,	8.858962E-9
1.551180E+3,	9.062228E-9
1.551184E+3,	9.260303E-9
1.551188E+3,	9.412967E-9
1.551192E+3,	9.563927E-9
1.551196E+3,	9.688317E-9
1.551200E+3,	9.808490E-9
1.551204E+3,	9.880305E-9
1.551208E+3,	9.900865E-9
1.551212E+3,	9.880262E-9
1.551216E+3,	9.803729E-9
1.551220E+3,	9.686645E-9
1.551224E+3,	9.556944E-9
1.551228E+3,	9.362332E-9
1.551232E+3,	9.122694E-9
1.551236E+3,	8.876230E-9
1.551240E+3,	8.665156E-9
1.551244E+3,	8.466001E-9
1.551248E+3,	8.253640E-9
1.551252E+3,	8.018816E-9
1.551256E+3,	7.825098E-9
1.551260E+3,	7.755641E-9
1.551264E+3,	7.659285E-9
1.551268E+3,	7.663236E-9
1.551272E+3,	7.690711E-9
1.551276E+3,	7.756781E-9
1.551280E+3,	7.870888E-9
1.551284E+3,	8.089531E-9
1.551288E+3,	8.252079E-9
1.551292E+3,	8.427723E-9
1.551296E+3,	8.629367E-9
1.551300E+3,	8.796177E-9
1.551304E+3,	9.006642E-9
1.551308E+3,	9.193279E-9
1.551312E+3,	9.276681E-9
1.551316E+3,	9.365884E-9
1.551320E+3,	9.390668E-9
1.551324E+3,	9.379949E-9
1.551328E+3,	9.323444E-9
1.551332E+3,	9.283224E-9
1.551336E+3,	9.144216E-9
1.551340E+3,	8.972627E-9
1.551344E+3,	8.839624E-9
1.551348E+3,	8.672585E-9
1.551352E+3,	8.513523E-9
1.551356E+3,	8.316522E-9
1.551360E+3,	8.159778E-9
1.551364E+3,	8.040973E-9
1.551368E+3,	7.953492E-9
1.551372E+3,	7.882757E-9
1.551376E+3,	7.877822E-9
1.551380E+3,	7.923325E-9
1.551384E+3,	8.028638E-9
1.551388E+3,	8.175127E-9
1.551392E+3,	8.365597E-9
1.551396E+3,	8.544057E-9
1.551400E+3,	8.797636E-9
1.551404E+3,	9.057245E-9
1.551408E+3,	9.302591E-9
1.551412E+3,	9.517050E-9
1.551416E+3,	9.673980E-9
1.551420E+3,	9.808621E-9
1.551424E+3,	9.888526E-9
1.551428E+3,	9.945044E-9
1.551432E+3,	9.919715E-9
1.551436E+3,	9.897263E-9
1.551440E+3,	9.749893E-9
1.551444E+3,	9.626921E-9
1.551448E+3,	9.462958E-9
1.551452E+3,	9.290713E-9
1.551456E+3,	9.076715E-9
1.551460E+3,	8.863656E-9
1.551464E+3,	8.690616E-9
1.551468E+3,	8.483277E-9
1.551472E+3,	8.355277E-9
1.551476E+3,	8.193665E-9
1.551480E+3,	8.081487E-9
1.551484E+3,	8.048115E-9
1.551488E+3,	8.025275E-9
1.551492E+3,	8.105493E-9
1.551496E+3,	8.234900E-9
1.551500E+3,	8.395235E-9
1.551504E+3,	8.613554E-9
1.551508E+3,	8.916753E-9
1.551512E+3,	9.193792E-9
1.551516E+3,	9.488953E-9
1.551520E+3,	9.798780E-9
1.551524E+3,	10.112340E-9
1.551528E+3,	10.438079E-9
1.551532E+3,	10.677083E-9
1.551536E+3,	10.827627E-9
1.551540E+3,	10.938008E-9
1.551544E+3,	11.006391E-9
1.551548E+3,	10.995780E-9
1.551552E+3,	10.927172E-9
1.551556E+3,	10.799384E-9
1.551560E+3,	10.598246E-9
1.551564E+3,	10.393208E-9
1.551568E+3,	10.122470E-9
1.551572E+3,	9.910264E-9
1.551576E+3,	9.667747E-9
1.551580E+3,	9.412202E-9
1.551584E+3,	9.180142E-9
1.551588E+3,	9.017780E-9
1.551592E+3,	8.879035E-9
1.551596E+3,	8.716716E-9
1.551600E+3,	8.635342E-9
1.551604E+3,	8.638551E-9
1.551608E+3,	8.660349E-9
1.551612E+3,	8.760004E-9
1.551616E+3,	8.923320E-9
1.551620E+3,	9.086812E-9
1.551624E+3,	9.276617E-9
1.551628E+3,	9.531400E-9
1.551632E+3,	9.783036E-9
1.551636E+3,	10.021986E-9
1.551640E+3,	10.234534E-9
1.551644E+3,	10.402536E-9
1.551648E+3,	10.561930E-9
1.551652E+3,	10.650113E-9
1.551656E+3,	10.718414E-9
1.551660E+3,	10.755506E-9
1.551664E+3,	10.666753E-9
1.551668E+3,	10.564052E-9
1.551672E+3,	10.424614E-9
1.551676E+3,	10.281874E-9
1.551680E+3,	10.012785E-9
1.551684E+3,	9.740144E-9
1.551688E+3,	9.515223E-9
1.551692E+3,	9.330707E-9
1.551696E+3,	9.123669E-9
1.551700E+3,	8.916970E-9
1.551704E+3,	8.720856E-9
1.551708E+3,	8.619085E-9
1.551712E+3,	8.547643E-9
1.551716E+3,	8.451591E-9
1.551720E+3,	8.450762E-9
1.551724E+3,	8.489893E-9
1.551728E+3,	8.584779E-9
1.551732E+3,	8.709664E-9
1.551736E+3,	8.887445E-9
1.551740E+3,	8.986986E-9
1.551744E+3,	9.154972E-9
1.551748E+3,	9.269128E-9
1.551752E+3,	9.398213E-9
1.551756E+3,	9.506871E-9
1.551760E+3,	9.530295E-9
1.551764E+3,	9.554116E-9
1.551768E+3,	9.451202E-9
1.551772E+3,	9.361502E-9
1.551776E+3,	9.207960E-9
1.551780E+3,	9.023271E-9
1.551784E+3,	8.761388E-9
1.551788E+3,	8.517345E-9
1.551792E+3,	8.281633E-9
1.551796E+3,	8.043510E-9
1.551800E+3,	7.795708E-9
1.551804E+3,	7.574039E-9
1.551808E+3,	7.378382E-9
1.551812E+3,	7.259236E-9
1.551816E+3,	7.132572E-9
1.551820E+3,	7.041689E-9
1.551824E+3,	7.030690E-9
1.551828E+3,	7.027775E-9
1.551832E+3,	7.122450E-9
1.551836E+3,	7.263110E-9
1.551840E+3,	7.401665E-9
1.551844E+3,	7.541816E-9
1.551848E+3,	7.735786E-9
1.551852E+3,	7.955034E-9
1.551856E+3,	8.204702E-9
1.551860E+3,	8.426791E-9
1.551864E+3,	8.586084E-9
1.551868E+3,	8.698783E-9
1.551872E+3,	8.825875E-9
1.551876E+3,	8.888538E-9
1.551880E+3,	8.852058E-9
1.551884E+3,	8.746432E-9
1.551888E+3,	8.572365E-9
1.551892E+3,	8.367563E-9
1.551896E+3,	8.148560E-9
1.551900E+3,	7.899059E-9
1.551904E+3,	7.539647E-9
1.551908E+3,	7.249488E-9
1.551912E+3,	7.036705E-9
1.551916E+3,	6.762710E-9
1.551920E+3,	6.516874E-9
1.551924E+3,	6.295362E-9
1.551928E+3,	6.130587E-9
1.551932E+3,	6.037151E-9
1.551936E+3,	5.963193E-9
1.551940E+3,	5.942346E-9
1.551944E+3,	5.989500E-9
1.551948E+3,	6.034739E-9
1.551952E+3,	6.146083E-9
1.551956E+3,	6.285015E-9
1.551960E+3,	6.405037E-9
1.551964E+3,	6.524129E-9
1.551968E+3,	6.669232E-9
1.551972E+3,	6.810245E-9
1.551976E+3,	6.939446E-9
1.551980E+3,	7.027270E-9
1.551984E+3,	7.070488E-9
1.551988E+3,	7.108838E-9
1.551992E+3,	7.100367E-9
1.551996E+3,	7.004082E-9
1.552000E+3,	6.955932E-9
1.552004E+3,	6.851783E-9
1.552008E+3,	6.643643E-9
1.552012E+3,	6.474152E-9
1.552016E+3,	6.330062E-9
1.552020E+3,	6.151165E-9
1.552024E+3,	5.929319E-9
1.552028E+3,	5.767787E-9
1.552032E+3,	5.612369E-9
1.552036E+3,	5.497297E-9
1.552040E+3,	5.420387E-9
1.552044E+3,	5.366099E-9
1.552048E+3,	5.342937E-9
1.552052E+3,	5.352529E-9
1.552056E+3,	5.368024E-9
1.552060E+3,	5.447982E-9
1.552064E+3,	5.521908E-9
1.552068E+3,	5.614958E-9
1.552072E+3,	5.721095E-9
1.552076E+3,	5.835046E-9
1.552080E+3,	5.948308E-9
1.552084E+3,	5.999030E-9
1.552088E+3,	6.052683E-9
1.552092E+3,	6.084190E-9
1.552096E+3,	6.061077E-9
1.552100E+3,	6.058026E-9
1.552104E+3,	5.981932E-9
1.552108E+3,	5.853042E-9
1.552112E+3,	5.712050E-9
1.552116E+3,	5.570032E-9
1.552120E+3,	5.370680E-9
1.552124E+3,	5.164868E-9
1.552128E+3,	4.981138E-9
1.552132E+3,	4.808822E-9
1.552136E+3,	4.663805E-9
1.552140E+3,	4.478797E-9
1.552144E+3,	4.316761E-9
1.552148E+3,	4.202728E-9
1.552152E+3,	4.128208E-9
1.552156E+3,	4.075998E-9
1.552160E+3,	4.068583E-9
1.552164E+3,	4.065826E-9
1.552168E+3,	4.064796E-9
1.552172E+3,	4.120375E-9
1.552176E+3,	4.197858E-9
1.552180E+3,	4.276397E-9
1.552184E+3,	4.343677E-9
1.552188E+3,	4.392220E-9
1.552192E+3,	4.500169E-9
1.552196E+3,	4.568600E-9
1.552200E+3,	4.638298E-9
1.552204E+3,	4.667699E-9
1.552208E+3,	4.678319E-9
1.552212E+3,	4.692518E-9
1.552216E+3,	4.692049E-9
1.552220E+3,	4.617377E-9
1.552224E+3,	4.486788E-9
1.552228E+3,	4.396696E-9
1.552232E+3,	4.275333E-9
1.552236E+3,	4.127223E-9
1.552240E+3,	3.976016E-9
1.552244E+3,	3.753962E-9
1.552248E+3,	3.565042E-9
1.552252E+3,	3.423816E-9
1.552256E+3,	3.270432E-9
1.552260E+3,	3.114034E-9
1.552264E+3,	3.013819E-9
1.552268E+3,	2.916817E-9
1.552272E+3,	2.846041E-9
1.552276E+3,	2.798877E-9
1.552280E+3,	2.771492E-9
1.552284E+3,	2.783151E-9
1.552288E+3,	2.798049E-9
1.552292E+3,	2.804397E-9
1.552296E+3,	2.879202E-9
1.552300E+3,	2.890401E-9
1.552304E+3,	2.927958E-9
1.552308E+3,	2.962408E-9
1.552312E+3,	2.992714E-9
1.552316E+3,	2.961034E-9
1.552320E+3,	2.967432E-9
1.552324E+3,	2.954612E-9
1.552328E+3,	2.910433E-9
1.552332E+3,	2.865843E-9
1.552336E+3,	2.809111E-9
1.552340E+3,	2.733629E-9
1.552344E+3,	2.633750E-9
1.552348E+3,	2.528466E-9
1.552352E+3,	2.412361E-9
1.552356E+3,	2.308810E-9
1.552360E+3,	2.200820E-9
1.552364E+3,	2.091680E-9
1.552368E+3,	2.008287E-9
1.552372E+3,	1.919897E-9
1.552376E+3,	1.838561E-9
1.552380E+3,	1.795958E-9
1.552384E+3,	1.776679E-9
1.552388E+3,	1.745329E-9
1.552392E+3,	1.740283E-9
1.552396E+3,	1.760419E-9
1.552400E+3,	1.784738E-9
1.552404E+3,	1.817528E-9
1.552408E+3,	1.844671E-9
1.552412E+3,	1.878895E-9
1.552416E+3,	1.907264E-9
1.552420E+3,	1.916079E-9
1.552424E+3,	1.936419E-9
1.552428E+3,	1.947061E-9
1.552432E+3,	1.932790E-9
1.552436E+3,	1.879943E-9
1.552440E+3,	1.860482E-9
1.552444E+3,	1.800292E-9
1.552448E+3,	1.712547E-9
1.552452E+3,	1.681244E-9
1.552456E+3,	1.599570E-9
1.552460E+3,	1.509965E-9
1.552464E+3,	1.399071E-9
1.552468E+3,	1.350603E-9
1.552472E+3,	1.281007E-9
1.552476E+3,	1.221901E-9
1.552480E+3,	1.141132E-9
1.552484E+3,	1.103890E-9
1.552488E+3,	1.074727E-9
1.552492E+3,	1.042677E-9
1.552496E+3,	1.002526E-9
1.552500E+3,	1.017840E-9
1.552504E+3,	996.450960E-12
1.552508E+3,	1.004041E-9
1.552512E+3,	1.006859E-9
1.552516E+3,	1.051875E-9
1.552520E+3,	1.045713E-9
1.552524E+3,	1.074525E-9
1.552528E+3,	1.082718E-9
1.552532E+3,	1.090436E-9
1.552536E+3,	1.095454E-9
1.552540E+3,	1.112170E-9
1.552544E+3,	1.094621E-9
1.552548E+3,	1.082625E-9
1.552552E+3,	1.052558E-9
1.552556E+3,	1.047127E-9
1.552560E+3,	1.025377E-9
1.552564E+3,	985.838414E-12
1.552568E+3,	931.746617E-12
1.552572E+3,	902.945976E-12
1.552576E+3,	835.026276E-12
1.552580E+3,	793.845376E-12
1.552584E+3,	756.109898E-12
1.552588E+3,	731.344167E-12
1.552592E+3,	683.050337E-12
1.552596E+3,	645.634576E-12
1.552600E+3,	624.955083E-12
1.552604E+3,	612.443098E-12
1.552608E+3,	589.154756E-12
1.552612E+3,	577.101101E-12
1.552616E+3,	560.291158E-12
1.552620E+3,	560.770986E-12
1.552624E+3,	565.042668E-12
1.552628E+3,	532.158083E-12
1.552632E+3,	551.746664E-12
1.552636E+3,	542.999440E-12
1.552640E+3,	546.782618E-12
1.552644E+3,	529.388811E-12
1.552648E+3,	538.055635E-12
1.552652E+3,	551.227108E-12
1.552656E+3,	544.656602E-12
1.552660E+3,	513.547127E-12
1.552664E+3,	490.436331E-12
1.552668E+3,	498.417877E-12
1.552672E+3,	467.961219E-12
1.552676E+3,	422.932400E-12
1.552680E+3,	411.603453E-12
1.552684E+3,	412.677828E-12
1.552688E+3,	401.565774E-12
1.552692E+3,	375.996245E-12
1.552696E+3,	321.759626E-12
1.552700E+3,	326.162446E-12
1.552704E+3,	313.370671E-12
1.552708E+3,	308.659440E-12
1.552712E+3,	293.290692E-12
1.552716E+3,	282.600259E-12
1.552720E+3,	297.810117E-12
1.552724E+3,	284.359205E-12
1.552728E+3,	267.293224E-12
1.552732E+3,	264.215501E-12
1.552736E+3,	288.573435E-12
1.552740E+3,	272.196900E-12
1.552744E+3,	271.261802E-12
1.552748E+3,	294.757500E-12
1.552752E+3,	296.924512E-12
1.552756E+3,	296.586315E-12
1.552760E+3,	272.587990E-12
1.552764E+3,	281.491095E-12
1.552768E+3,	252.109373E-12
1.552772E+3,	260.177581E-12
1.552776E+3,	252.393013E-12
1.552780E+3,	223.864962E-12
1.552784E+3,	223.104261E-12
1.552788E+3,	207.133940E-12
1.552792E+3,	204.104956E-12
1.552796E+3,	179.992625E-12
1.552800E+3,	166.534182E-12
1.552804E+3,	167.660438E-12
1.552808E+3,	153.004215E-12
1.552812E+3,	143.830837E-12
1.552816E+3,	150.247662E-12
1.552820E+3,	137.302229E-12
1.552824E+3,	121.780122E-12
1.552828E+3,	110.193555E-12
1.552832E+3,	108.622870E-12
1.552836E+3,	119.592324E-12
1.552840E+3,	108.216601E-12
1.552844E+3,	121.206547E-12
1.552848E+3,	116.561777E-12
1.552852E+3,	105.012199E-12
1.552856E+3,	102.694948E-12
1.552860E+3,	107.293247E-12
1.552864E+3,	128.382644E-12
1.552868E+3,	121.291282E-12
1.552872E+3,	112.002354E-12
1.552876E+3,	106.306877E-12
1.552880E+3,	119.547598E-12
1.552884E+3,	118.447361E-12
1.552888E+3,	120.063168E-12
1.552892E+3,	111.833652E-12
1.552896E+3,	96.756254E-12
1.552900E+3,	105.729440E-12
1.552904E+3,	100.760654E-12
1.552908E+3,	101.793961E-12
1.552912E+3,	111.082220E-12
1.552916E+3,	100.982298E-12
1.552920E+3,	78.946011E-12
1.552924E+3,	74.673689E-12
1.552928E+3,	72.164116E-12
1.552932E+3,	67.678502E-12
1.552936E+3,	79.518608E-12
1.552940E+3,	61.911011E-12
1.552944E+3,	51.353211E-12
1.552948E+3,	36.605837E-12
1.552952E+3,	50.278506E-12
1.552956E+3,	79.407790E-12
1.552960E+3,	69.193157E-12
1.552964E+3,	66.629893E-12
1.552968E+3,	59.675679E-12
1.552972E+3,	94.797760E-12
1.552976E+3,	59.784367E-12
1.552980E+3,	58.108168E-12
1.552984E+3,	61.412382E-12
1.552988E+3,	72.774853E-12
1.552992E+3,	65.431357E-12
1.552996E+3,	44.315666E-12
1.553000E+3,	52.137639E-12
