YOKOGAWA AQ6370D - S/N: 91S206859
#Date: 11/08/2023 Time: 19:37:40,	
A_WL(nm),	A_I(mW)
1.557000E+3,	366.050852E-12
1.557004E+3,	349.538142E-12
1.557008E+3,	334.808715E-12
1.557012E+3,	351.549417E-12
1.557016E+3,	356.386240E-12
1.557020E+3,	361.259897E-12
1.557024E+3,	364.600043E-12
1.557028E+3,	345.278664E-12
1.557032E+3,	340.322401E-12
1.557036E+3,	356.176377E-12
1.557040E+3,	354.017443E-12
1.557044E+3,	337.511779E-12
1.557048E+3,	344.073206E-12
1.557052E+3,	342.678294E-12
1.557056E+3,	358.363720E-12
1.557060E+3,	348.800523E-12
1.557064E+3,	332.046451E-12
1.557068E+3,	360.486468E-12
1.557072E+3,	347.582933E-12
1.557076E+3,	352.349810E-12
1.557080E+3,	342.322837E-12
1.557084E+3,	333.389884E-12
1.557088E+3,	345.018066E-12
1.557092E+3,	331.902890E-12
1.557096E+3,	343.725284E-12
1.557100E+3,	356.386198E-12
1.557104E+3,	342.714913E-12
1.557108E+3,	357.537662E-12
1.557112E+3,	339.388416E-12
1.557116E+3,	339.408920E-12
1.557120E+3,	335.978139E-12
1.557124E+3,	365.490904E-12
1.557128E+3,	349.370856E-12
1.557132E+3,	353.792144E-12
1.557136E+3,	338.000482E-12
1.557140E+3,	357.596931E-12
1.557144E+3,	361.153812E-12
1.557148E+3,	357.562331E-12
1.557152E+3,	379.363231E-12
1.557156E+3,	363.918858E-12
1.557160E+3,	371.899119E-12
1.557164E+3,	366.968131E-12
1.557168E+3,	374.565455E-12
1.557172E+3,	370.165485E-12
1.557176E+3,	378.745660E-12
1.557180E+3,	369.617195E-12
1.557184E+3,	382.726802E-12
1.557188E+3,	379.343652E-12
1.557192E+3,	388.525985E-12
1.557196E+3,	389.632242E-12
1.557200E+3,	405.714952E-12
1.557204E+3,	413.905813E-12
1.557208E+3,	415.346364E-12
1.557212E+3,	409.231570E-12
1.557216E+3,	427.488982E-12
1.557220E+3,	421.536431E-12
1.557224E+3,	430.944618E-12
1.557228E+3,	452.868137E-12
1.557232E+3,	462.503009E-12
1.557236E+3,	466.991968E-12
1.557240E+3,	476.215351E-12
1.557244E+3,	470.636061E-12
1.557248E+3,	484.391536E-12
1.557252E+3,	482.542408E-12
1.557256E+3,	499.212431E-12
1.557260E+3,	498.207333E-12
1.557264E+3,	529.841648E-12
1.557268E+3,	530.985117E-12
1.557272E+3,	531.136564E-12
1.557276E+3,	565.932173E-12
1.557280E+3,	570.509957E-12
1.557284E+3,	573.434929E-12
1.557288E+3,	604.097192E-12
1.557292E+3,	614.532163E-12
1.557296E+3,	645.004548E-12
1.557300E+3,	664.936573E-12
1.557304E+3,	697.994495E-12
1.557308E+3,	722.881881E-12
1.557312E+3,	732.965815E-12
1.557316E+3,	735.648470E-12
1.557320E+3,	774.178758E-12
1.557324E+3,	795.704491E-12
1.557328E+3,	813.607025E-12
1.557332E+3,	841.752279E-12
1.557336E+3,	858.561698E-12
1.557340E+3,	896.376961E-12
1.557344E+3,	919.092799E-12
1.557348E+3,	947.893973E-12
1.557352E+3,	985.396921E-12
1.557356E+3,	1.009366E-9
1.557360E+3,	1.047022E-9
1.557364E+3,	1.083035E-9
1.557368E+3,	1.118015E-9
1.557372E+3,	1.125700E-9
1.557376E+3,	1.164448E-9
1.557380E+3,	1.201819E-9
1.557384E+3,	1.252394E-9
1.557388E+3,	1.285326E-9
1.557392E+3,	1.315644E-9
1.557396E+3,	1.357914E-9
1.557400E+3,	1.416718E-9
1.557404E+3,	1.436043E-9
1.557408E+3,	1.471108E-9
1.557412E+3,	1.532945E-9
1.557416E+3,	1.577117E-9
1.557420E+3,	1.595188E-9
1.557424E+3,	1.671581E-9
1.557428E+3,	1.733188E-9
1.557432E+3,	1.759284E-9
1.557436E+3,	1.826625E-9
1.557440E+3,	1.896345E-9
1.557444E+3,	1.923939E-9
1.557448E+3,	2.006109E-9
1.557452E+3,	2.075420E-9
1.557456E+3,	2.150244E-9
1.557460E+3,	2.217477E-9
1.557464E+3,	2.266076E-9
1.557468E+3,	2.374828E-9
1.557472E+3,	2.456358E-9
1.557476E+3,	2.513430E-9
1.557480E+3,	2.622430E-9
1.557484E+3,	2.689425E-9
1.557488E+3,	2.761349E-9
1.557492E+3,	2.827351E-9
1.557496E+3,	2.927946E-9
1.557500E+3,	3.012748E-9
1.557504E+3,	3.068396E-9
1.557508E+3,	3.165928E-9
1.557512E+3,	3.251369E-9
1.557516E+3,	3.334229E-9
1.557520E+3,	3.428447E-9
1.557524E+3,	3.518431E-9
1.557528E+3,	3.620043E-9
1.557532E+3,	3.718420E-9
1.557536E+3,	3.790729E-9
1.557540E+3,	3.889640E-9
1.557544E+3,	3.970148E-9
1.557548E+3,	4.062434E-9
1.557552E+3,	4.167545E-9
1.557556E+3,	4.243924E-9
1.557560E+3,	4.321397E-9
1.557564E+3,	4.422459E-9
1.557568E+3,	4.532127E-9
1.557572E+3,	4.614417E-9
1.557576E+3,	4.705015E-9
1.557580E+3,	4.849950E-9
1.557584E+3,	4.950414E-9
1.557588E+3,	5.091392E-9
1.557592E+3,	5.231913E-9
1.557596E+3,	5.385865E-9
1.557600E+3,	5.548320E-9
1.557604E+3,	5.677880E-9
1.557608E+3,	5.849406E-9
1.557612E+3,	6.019419E-9
1.557616E+3,	6.153323E-9
1.557620E+3,	6.306485E-9
1.557624E+3,	6.475398E-9
1.557628E+3,	6.615260E-9
1.557632E+3,	6.770176E-9
1.557636E+3,	6.948966E-9
1.557640E+3,	7.122530E-9
1.557644E+3,	7.260225E-9
1.557648E+3,	7.425438E-9
1.557652E+3,	7.606347E-9
1.557656E+3,	7.790283E-9
1.557660E+3,	7.972962E-9
1.557664E+3,	8.200680E-9
1.557668E+3,	8.394789E-9
1.557672E+3,	8.583918E-9
1.557676E+3,	8.787869E-9
1.557680E+3,	9.028325E-9
1.557684E+3,	9.267742E-9
1.557688E+3,	9.432486E-9
1.557692E+3,	9.643630E-9
1.557696E+3,	9.856841E-9
1.557700E+3,	10.019050E-9
1.557704E+3,	10.174227E-9
1.557708E+3,	10.378737E-9
1.557712E+3,	10.557985E-9
1.557716E+3,	10.716677E-9
1.557720E+3,	10.897704E-9
1.557724E+3,	11.073134E-9
1.557728E+3,	11.221440E-9
1.557732E+3,	11.370797E-9
1.557736E+3,	11.603329E-9
1.557740E+3,	11.808312E-9
1.557744E+3,	11.964506E-9
1.557748E+3,	12.205986E-9
1.557752E+3,	12.476544E-9
1.557756E+3,	12.669706E-9
1.557760E+3,	12.892856E-9
1.557764E+3,	13.169297E-9
1.557768E+3,	13.433934E-9
1.557772E+3,	13.696417E-9
1.557776E+3,	14.014221E-9
1.557780E+3,	14.301545E-9
1.557784E+3,	14.557585E-9
1.557788E+3,	14.780338E-9
1.557792E+3,	15.097071E-9
1.557796E+3,	15.364009E-9
1.557800E+3,	15.585933E-9
1.557804E+3,	15.887716E-9
1.557808E+3,	16.184993E-9
1.557812E+3,	16.388630E-9
1.557816E+3,	16.649704E-9
1.557820E+3,	17.019059E-9
1.557824E+3,	17.328709E-9
1.557828E+3,	17.601730E-9
1.557832E+3,	17.993431E-9
1.557836E+3,	18.350498E-9
1.557840E+3,	18.644656E-9
1.557844E+3,	18.962594E-9
1.557848E+3,	19.359930E-9
1.557852E+3,	19.683387E-9
1.557856E+3,	19.919323E-9
1.557860E+3,	20.224880E-9
1.557864E+3,	20.489352E-9
1.557868E+3,	20.693863E-9
1.557872E+3,	20.919029E-9
1.557876E+3,	21.187240E-9
1.557880E+3,	21.371067E-9
1.557884E+3,	21.569374E-9
1.557888E+3,	21.815782E-9
1.557892E+3,	22.058372E-9
1.557896E+3,	22.307543E-9
1.557900E+3,	22.605706E-9
1.557904E+3,	22.948905E-9
1.557908E+3,	23.267789E-9
1.557912E+3,	23.550086E-9
1.557916E+3,	23.898583E-9
1.557920E+3,	24.271552E-9
1.557924E+3,	24.586946E-9
1.557928E+3,	24.838516E-9
1.557932E+3,	25.097740E-9
1.557936E+3,	25.330295E-9
1.557940E+3,	25.545477E-9
1.557944E+3,	25.759809E-9
1.557948E+3,	25.992692E-9
1.557952E+3,	26.284609E-9
1.557956E+3,	26.499863E-9
1.557960E+3,	26.829959E-9
1.557964E+3,	27.170059E-9
1.557968E+3,	27.503004E-9
1.557972E+3,	27.895087E-9
1.557976E+3,	28.370763E-9
1.557980E+3,	28.878881E-9
1.557984E+3,	29.302472E-9
1.557988E+3,	29.798915E-9
1.557992E+3,	30.332159E-9
1.557996E+3,	30.754086E-9
1.558000E+3,	31.149105E-9
1.558004E+3,	31.633614E-9
1.558008E+3,	32.034900E-9
1.558012E+3,	32.304755E-9
1.558016E+3,	32.608272E-9
1.558020E+3,	32.883536E-9
1.558024E+3,	33.095334E-9
1.558028E+3,	33.292596E-9
1.558032E+3,	33.458285E-9
1.558036E+3,	33.643825E-9
1.558040E+3,	33.791141E-9
1.558044E+3,	33.997828E-9
1.558048E+3,	34.263811E-9
1.558052E+3,	34.504984E-9
1.558056E+3,	34.767280E-9
1.558060E+3,	35.065440E-9
1.558064E+3,	35.311031E-9
1.558068E+3,	35.597526E-9
1.558072E+3,	35.978236E-9
1.558076E+3,	36.322682E-9
1.558080E+3,	36.569832E-9
1.558084E+3,	36.852083E-9
1.558088E+3,	37.114161E-9
1.558092E+3,	37.261992E-9
1.558096E+3,	37.422987E-9
1.558100E+3,	37.599916E-9
1.558104E+3,	37.725645E-9
1.558108E+3,	37.862305E-9
1.558112E+3,	37.976635E-9
1.558116E+3,	38.081035E-9
1.558120E+3,	38.235377E-9
1.558124E+3,	38.545368E-9
1.558128E+3,	38.835176E-9
1.558132E+3,	39.123130E-9
1.558136E+3,	39.446758E-9
1.558140E+3,	39.941406E-9
1.558144E+3,	40.489676E-9
1.558148E+3,	40.924189E-9
1.558152E+3,	41.490161E-9
1.558156E+3,	41.913149E-9
1.558160E+3,	42.245159E-9
1.558164E+3,	42.550026E-9
1.558168E+3,	42.863001E-9
1.558172E+3,	43.120449E-9
1.558176E+3,	43.299533E-9
1.558180E+3,	43.499327E-9
1.558184E+3,	43.636165E-9
1.558188E+3,	43.729723E-9
1.558192E+3,	43.855715E-9
1.558196E+3,	44.050158E-9
1.558200E+3,	44.244033E-9
1.558204E+3,	44.482229E-9
1.558208E+3,	44.851901E-9
1.558212E+3,	45.164911E-9
1.558216E+3,	45.479311E-9
1.558220E+3,	45.931382E-9
1.558224E+3,	46.290070E-9
1.558228E+3,	46.579791E-9
1.558232E+3,	46.906955E-9
1.558236E+3,	47.174981E-9
1.558240E+3,	47.331619E-9
1.558244E+3,	47.430259E-9
1.558248E+3,	47.446678E-9
1.558252E+3,	47.425630E-9
1.558256E+3,	47.364884E-9
1.558260E+3,	47.276972E-9
1.558264E+3,	47.143315E-9
1.558268E+3,	47.049022E-9
1.558272E+3,	46.989707E-9
1.558276E+3,	47.025516E-9
1.558280E+3,	47.140224E-9
1.558284E+3,	47.045602E-9
1.558288E+3,	47.282475E-9
1.558292E+3,	47.566159E-9
1.558296E+3,	47.810206E-9
1.558300E+3,	48.104314E-9
1.558304E+3,	48.530948E-9
1.558308E+3,	48.918472E-9
1.558312E+3,	49.264629E-9
1.558316E+3,	49.732136E-9
1.558320E+3,	50.023332E-9
1.558324E+3,	50.214801E-9
1.558328E+3,	50.384249E-9
1.558332E+3,	50.559698E-9
1.558336E+3,	50.669159E-9
1.558340E+3,	50.709812E-9
1.558344E+3,	50.741787E-9
1.558348E+3,	50.755512E-9
1.558352E+3,	50.774825E-9
1.558356E+3,	50.868638E-9
1.558360E+3,	51.025318E-9
1.558364E+3,	51.257684E-9
1.558368E+3,	51.513534E-9
1.558372E+3,	51.882682E-9
1.558376E+3,	52.237081E-9
1.558380E+3,	52.625868E-9
1.558384E+3,	53.061637E-9
1.558388E+3,	53.459529E-9
1.558392E+3,	53.774769E-9
1.558396E+3,	53.893263E-9
1.558400E+3,	53.932532E-9
1.558404E+3,	53.868146E-9
1.558408E+3,	53.749249E-9
1.558412E+3,	53.505487E-9
1.558416E+3,	53.205544E-9
1.558420E+3,	52.927041E-9
1.558424E+3,	52.581576E-9
1.558428E+3,	52.247815E-9
1.558432E+3,	51.950687E-9
1.558436E+3,	51.813647E-9
1.558440E+3,	51.706238E-9
1.558444E+3,	51.705360E-9
1.558448E+3,	51.776187E-9
1.558452E+3,	51.881747E-9
1.558456E+3,	52.149023E-9
1.558460E+3,	52.457916E-9
1.558464E+3,	52.674417E-9
1.558468E+3,	52.980362E-9
1.558472E+3,	53.242916E-9
1.558476E+3,	53.396334E-9
1.558480E+3,	53.527899E-9
1.558484E+3,	53.626771E-9
1.558488E+3,	53.627772E-9
1.558492E+3,	53.594803E-9
1.558496E+3,	53.486832E-9
1.558500E+3,	53.360296E-9
1.558504E+3,	53.261982E-9
1.558508E+3,	53.225402E-9
1.558512E+3,	53.318461E-9
1.558516E+3,	53.445234E-9
1.558520E+3,	53.649511E-9
1.558524E+3,	53.959380E-9
1.558528E+3,	54.323923E-9
1.558532E+3,	54.635111E-9
1.558536E+3,	55.082202E-9
1.558540E+3,	55.502083E-9
1.558544E+3,	55.811640E-9
1.558548E+3,	56.069257E-9
1.558552E+3,	56.258817E-9
1.558556E+3,	56.376575E-9
1.558560E+3,	56.427407E-9
1.558564E+3,	56.345911E-9
1.558568E+3,	56.128993E-9
1.558572E+3,	55.820734E-9
1.558576E+3,	55.341702E-9
1.558580E+3,	54.840336E-9
1.558584E+3,	54.413322E-9
1.558588E+3,	54.045342E-9
1.558592E+3,	53.731738E-9
1.558596E+3,	53.524147E-9
1.558600E+3,	53.371889E-9
1.558604E+3,	53.419776E-9
1.558608E+3,	53.539750E-9
1.558612E+3,	53.799847E-9
1.558616E+3,	54.071935E-9
1.558620E+3,	54.462198E-9
1.558624E+3,	54.808857E-9
1.558628E+3,	55.028408E-9
1.558632E+3,	55.271270E-9
1.558636E+3,	55.399105E-9
1.558640E+3,	55.433519E-9
1.558644E+3,	55.410406E-9
1.558648E+3,	55.201900E-9
1.558652E+3,	54.985332E-9
1.558656E+3,	54.741867E-9
1.558660E+3,	54.520491E-9
1.558664E+3,	54.294829E-9
1.558668E+3,	54.152609E-9
1.558672E+3,	54.042538E-9
1.558676E+3,	54.023916E-9
1.558680E+3,	54.123289E-9
1.558684E+3,	54.301962E-9
1.558688E+3,	54.636416E-9
1.558692E+3,	55.091827E-9
1.558696E+3,	55.436677E-9
1.558700E+3,	55.880770E-9
1.558704E+3,	56.248679E-9
1.558708E+3,	56.482996E-9
1.558712E+3,	56.633106E-9
1.558716E+3,	56.677209E-9
1.558720E+3,	56.590975E-9
1.558724E+3,	56.404248E-9
1.558728E+3,	56.100703E-9
1.558732E+3,	55.719503E-9
1.558736E+3,	55.415116E-9
1.558740E+3,	55.162617E-9
1.558744E+3,	54.823502E-9
1.558748E+3,	54.623842E-9
1.558752E+3,	54.474870E-9
1.558756E+3,	54.421256E-9
1.558760E+3,	54.504979E-9
1.558764E+3,	54.636926E-9
1.558768E+3,	54.915707E-9
1.558772E+3,	55.161209E-9
1.558776E+3,	55.382918E-9
1.558780E+3,	55.639137E-9
1.558784E+3,	55.831045E-9
1.558788E+3,	55.945964E-9
1.558792E+3,	56.013338E-9
1.558796E+3,	55.918239E-9
1.558800E+3,	55.737188E-9
1.558804E+3,	55.471413E-9
1.558808E+3,	55.174981E-9
1.558812E+3,	54.694597E-9
1.558816E+3,	54.275254E-9
1.558820E+3,	54.011432E-9
1.558824E+3,	53.665550E-9
1.558828E+3,	53.510980E-9
1.558832E+3,	53.497981E-9
1.558836E+3,	53.654525E-9
1.558840E+3,	54.024811E-9
1.558844E+3,	54.464629E-9
1.558848E+3,	54.881190E-9
1.558852E+3,	55.476082E-9
1.558856E+3,	56.047176E-9
1.558860E+3,	56.444092E-9
1.558864E+3,	56.932941E-9
1.558868E+3,	57.292243E-9
1.558872E+3,	57.399769E-9
1.558876E+3,	57.427172E-9
1.558880E+3,	57.187419E-9
1.558884E+3,	56.840223E-9
1.558888E+3,	56.511794E-9
1.558892E+3,	55.999266E-9
1.558896E+3,	55.422716E-9
1.558900E+3,	55.065746E-9
1.558904E+3,	54.641218E-9
1.558908E+3,	54.313734E-9
1.558912E+3,	54.195124E-9
1.558916E+3,	54.202321E-9
1.558920E+3,	54.355235E-9
1.558924E+3,	54.611073E-9
1.558928E+3,	54.819989E-9
1.558932E+3,	55.158118E-9
1.558936E+3,	55.671227E-9
1.558940E+3,	56.059820E-9
1.558944E+3,	56.341947E-9
1.558948E+3,	56.501789E-9
1.558952E+3,	56.548332E-9
1.558956E+3,	56.428506E-9
1.558960E+3,	56.147602E-9
1.558964E+3,	55.885512E-9
1.558968E+3,	55.588968E-9
1.558972E+3,	55.233951E-9
1.558976E+3,	54.730934E-9
1.558980E+3,	54.406968E-9
1.558984E+3,	54.195430E-9
1.558988E+3,	54.019420E-9
1.558992E+3,	54.002450E-9
1.558996E+3,	54.121325E-9
1.559000E+3,	54.350366E-9
1.559004E+3,	54.778557E-9
1.559008E+3,	55.225554E-9
1.559012E+3,	55.723140E-9
1.559016E+3,	56.365473E-9
1.559020E+3,	56.908858E-9
1.559024E+3,	57.190986E-9
1.559028E+3,	57.463313E-9
1.559032E+3,	57.584642E-9
1.559036E+3,	57.548222E-9
1.559040E+3,	57.461313E-9
1.559044E+3,	57.144161E-9
1.559048E+3,	56.801609E-9
1.559052E+3,	56.469430E-9
1.559056E+3,	55.959708E-9
1.559060E+3,	55.581077E-9
1.559064E+3,	55.349301E-9
1.559068E+3,	55.193480E-9
1.559072E+3,	55.241879E-9
1.559076E+3,	55.399152E-9
1.559080E+3,	55.677161E-9
1.559084E+3,	56.195928E-9
1.559088E+3,	56.695206E-9
1.559092E+3,	57.160525E-9
1.559096E+3,	57.745128E-9
1.559100E+3,	58.175602E-9
1.559104E+3,	58.434712E-9
1.559108E+3,	58.655135E-9
1.559112E+3,	58.694839E-9
1.559116E+3,	58.643248E-9
1.559120E+3,	58.435568E-9
1.559124E+3,	57.960026E-9
1.559128E+3,	57.503447E-9
1.559132E+3,	57.066688E-9
1.559136E+3,	56.490325E-9
1.559140E+3,	56.136743E-9
1.559144E+3,	55.934422E-9
1.559148E+3,	55.836420E-9
1.559152E+3,	55.932246E-9
1.559156E+3,	56.162437E-9
1.559160E+3,	56.587461E-9
1.559164E+3,	57.159753E-9
1.559168E+3,	57.739720E-9
1.559172E+3,	58.253277E-9
1.559176E+3,	58.939271E-9
1.559180E+3,	59.487887E-9
1.559184E+3,	59.823430E-9
1.559188E+3,	60.172524E-9
1.559192E+3,	60.339659E-9
1.559196E+3,	60.327245E-9
1.559200E+3,	60.205585E-9
1.559204E+3,	59.834598E-9
1.559208E+3,	59.439139E-9
1.559212E+3,	59.086358E-9
1.559216E+3,	58.580391E-9
1.559220E+3,	58.218082E-9
1.559224E+3,	57.980099E-9
1.559228E+3,	57.780773E-9
1.559232E+3,	57.697033E-9
1.559236E+3,	57.772185E-9
1.559240E+3,	57.975332E-9
1.559244E+3,	58.442275E-9
1.559248E+3,	58.916846E-9
1.559252E+3,	59.337058E-9
1.559256E+3,	59.919501E-9
1.559260E+3,	60.352421E-9
1.559264E+3,	60.618903E-9
1.559268E+3,	60.798487E-9
1.559272E+3,	60.817472E-9
1.559276E+3,	60.681350E-9
1.559280E+3,	60.335978E-9
1.559284E+3,	59.778512E-9
1.559288E+3,	59.201834E-9
1.559292E+3,	58.770157E-9
1.559296E+3,	58.137215E-9
1.559300E+3,	57.596065E-9
1.559304E+3,	57.268174E-9
1.559308E+3,	56.970696E-9
1.559312E+3,	56.932788E-9
1.559316E+3,	57.041775E-9
1.559320E+3,	57.332176E-9
1.559324E+3,	57.934453E-9
1.559328E+3,	58.521893E-9
1.559332E+3,	58.985221E-9
1.559336E+3,	59.690012E-9
1.559340E+3,	60.331006E-9
1.559344E+3,	60.704025E-9
1.559348E+3,	61.006777E-9
1.559352E+3,	61.181181E-9
1.559356E+3,	61.138108E-9
1.559360E+3,	60.981083E-9
1.559364E+3,	60.638128E-9
1.559368E+3,	60.182355E-9
1.559372E+3,	59.816865E-9
1.559376E+3,	59.242381E-9
1.559380E+3,	58.786008E-9
1.559384E+3,	58.568000E-9
1.559388E+3,	58.436996E-9
1.559392E+3,	58.524251E-9
1.559396E+3,	58.698322E-9
1.559400E+3,	58.909336E-9
1.559404E+3,	59.335321E-9
1.559408E+3,	59.741753E-9
1.559412E+3,	60.111415E-9
1.559416E+3,	60.598549E-9
1.559420E+3,	60.965412E-9
1.559424E+3,	61.194139E-9
1.559428E+3,	61.253856E-9
1.559432E+3,	61.135425E-9
1.559436E+3,	60.926289E-9
1.559440E+3,	60.575129E-9
1.559444E+3,	60.018223E-9
1.559448E+3,	59.417668E-9
1.559452E+3,	58.933812E-9
1.559456E+3,	58.336116E-9
1.559460E+3,	57.855130E-9
1.559464E+3,	57.662686E-9
1.559468E+3,	57.496637E-9
1.559472E+3,	57.459332E-9
1.559476E+3,	57.560309E-9
1.559480E+3,	57.754084E-9
1.559484E+3,	58.185495E-9
1.559488E+3,	58.661729E-9
1.559492E+3,	59.060130E-9
1.559496E+3,	59.570436E-9
1.559500E+3,	59.974824E-9
1.559504E+3,	60.131737E-9
1.559508E+3,	60.165564E-9
1.559512E+3,	60.065219E-9
1.559516E+3,	59.880403E-9
1.559520E+3,	59.648985E-9
1.559524E+3,	59.154140E-9
1.559528E+3,	58.743907E-9
1.559532E+3,	58.439877E-9
1.559536E+3,	58.020591E-9
1.559540E+3,	57.752993E-9
1.559544E+3,	57.685332E-9
1.559548E+3,	57.699189E-9
1.559552E+3,	57.896943E-9
1.559556E+3,	58.188745E-9
1.559560E+3,	58.602319E-9
1.559564E+3,	59.287622E-9
1.559568E+3,	59.954983E-9
1.559572E+3,	60.427170E-9
1.559576E+3,	60.915785E-9
1.559580E+3,	61.207332E-9
1.559584E+3,	61.288106E-9
1.559588E+3,	61.201431E-9
1.559592E+3,	60.960976E-9
1.559596E+3,	60.545080E-9
1.559600E+3,	60.138632E-9
1.559604E+3,	59.496208E-9
1.559608E+3,	58.894271E-9
1.559612E+3,	58.473473E-9
1.559616E+3,	57.962532E-9
1.559620E+3,	57.641013E-9
1.559624E+3,	57.506571E-9
1.559628E+3,	57.505666E-9
1.559632E+3,	57.666164E-9
1.559636E+3,	57.992511E-9
1.559640E+3,	58.398995E-9
1.559644E+3,	58.943231E-9
1.559648E+3,	59.508487E-9
1.559652E+3,	59.825288E-9
1.559656E+3,	60.279714E-9
1.559660E+3,	60.622357E-9
1.559664E+3,	60.752150E-9
1.559668E+3,	60.841152E-9
1.559672E+3,	60.721051E-9
1.559676E+3,	60.531517E-9
1.559680E+3,	60.242314E-9
1.559684E+3,	59.827123E-9
1.559688E+3,	59.399667E-9
1.559692E+3,	59.116298E-9
1.559696E+3,	58.876740E-9
1.559700E+3,	58.743128E-9
1.559704E+3,	58.814080E-9
1.559708E+3,	58.993876E-9
1.559712E+3,	59.388063E-9
1.559716E+3,	59.850911E-9
1.559720E+3,	60.341200E-9
1.559724E+3,	61.036190E-9
1.559728E+3,	61.607151E-9
1.559732E+3,	61.994138E-9
1.559736E+3,	62.409786E-9
1.559740E+3,	62.679907E-9
1.559744E+3,	62.756122E-9
1.559748E+3,	62.523396E-9
1.559752E+3,	62.077996E-9
1.559756E+3,	61.501308E-9
1.559760E+3,	60.804348E-9
1.559764E+3,	59.961897E-9
1.559768E+3,	59.154126E-9
1.559772E+3,	58.573681E-9
1.559776E+3,	57.960458E-9
1.559780E+3,	57.552286E-9
1.559784E+3,	57.401934E-9
1.559788E+3,	57.450833E-9
1.559792E+3,	57.748241E-9
1.559796E+3,	58.149997E-9
1.559800E+3,	58.702831E-9
1.559804E+3,	59.444101E-9
1.559808E+3,	60.217907E-9
1.559812E+3,	60.866718E-9
1.559816E+3,	61.516388E-9
1.559820E+3,	61.970150E-9
1.559824E+3,	62.157653E-9
1.559828E+3,	62.147548E-9
1.559832E+3,	62.015306E-9
1.559836E+3,	61.787917E-9
1.559840E+3,	61.422209E-9
1.559844E+3,	61.044856E-9
1.559848E+3,	60.554473E-9
1.559852E+3,	60.246622E-9
1.559856E+3,	59.897360E-9
1.559860E+3,	59.742018E-9
1.559864E+3,	59.703826E-9
1.559868E+3,	59.794060E-9
1.559872E+3,	60.104769E-9
1.559876E+3,	60.425411E-9
1.559880E+3,	60.880457E-9
1.559884E+3,	61.487702E-9
1.559888E+3,	62.056863E-9
1.559892E+3,	62.492820E-9
1.559896E+3,	62.795625E-9
1.559900E+3,	63.047581E-9
1.559904E+3,	63.077896E-9
1.559908E+3,	62.926492E-9
1.559912E+3,	62.672896E-9
1.559916E+3,	62.269621E-9
1.559920E+3,	61.793355E-9
1.559924E+3,	61.122083E-9
1.559928E+3,	60.423545E-9
1.559932E+3,	59.916100E-9
1.559936E+3,	59.312879E-9
1.559940E+3,	58.878514E-9
1.559944E+3,	58.606403E-9
1.559948E+3,	58.524772E-9
1.559952E+3,	58.633944E-9
1.559956E+3,	58.794688E-9
1.559960E+3,	59.136665E-9
1.559964E+3,	59.617117E-9
1.559968E+3,	60.149644E-9
1.559972E+3,	60.551773E-9
1.559976E+3,	60.987471E-9
1.559980E+3,	61.336969E-9
1.559984E+3,	61.465056E-9
1.559988E+3,	61.516685E-9
1.559992E+3,	61.426255E-9
1.559996E+3,	61.163963E-9
1.560000E+3,	60.831901E-9
1.560004E+3,	60.322406E-9
1.560008E+3,	59.864360E-9
1.560012E+3,	59.554014E-9
1.560016E+3,	59.275726E-9
1.560020E+3,	59.197230E-9
1.560024E+3,	59.234359E-9
1.560028E+3,	59.448972E-9
1.560032E+3,	59.758408E-9
1.560036E+3,	60.154627E-9
1.560040E+3,	60.763318E-9
1.560044E+3,	61.282007E-9
1.560048E+3,	61.747767E-9
1.560052E+3,	62.126985E-9
1.560056E+3,	62.477873E-9
1.560060E+3,	62.647141E-9
1.560064E+3,	62.632390E-9
1.560068E+3,	62.386346E-9
1.560072E+3,	61.929366E-9
1.560076E+3,	61.418638E-9
1.560080E+3,	60.580848E-9
1.560084E+3,	59.903829E-9
1.560088E+3,	59.387957E-9
1.560092E+3,	58.754842E-9
1.560096E+3,	58.305752E-9
1.560100E+3,	57.992845E-9
1.560104E+3,	57.795888E-9
1.560108E+3,	57.863160E-9
1.560112E+3,	58.051769E-9
1.560116E+3,	58.366165E-9
1.560120E+3,	58.884431E-9
1.560124E+3,	59.452434E-9
1.560128E+3,	59.896081E-9
1.560132E+3,	60.380337E-9
1.560136E+3,	60.717523E-9
1.560140E+3,	60.913901E-9
1.560144E+3,	60.933573E-9
1.560148E+3,	60.772341E-9
1.560152E+3,	60.548901E-9
1.560156E+3,	60.192272E-9
1.560160E+3,	59.691814E-9
1.560164E+3,	59.233932E-9
1.560168E+3,	58.868394E-9
1.560172E+3,	58.298392E-9
1.560176E+3,	57.924222E-9
1.560180E+3,	57.769519E-9
1.560184E+3,	57.749864E-9
1.560188E+3,	57.939583E-9
1.560192E+3,	58.279939E-9
1.560196E+3,	58.848503E-9
1.560200E+3,	59.439042E-9
1.560204E+3,	59.942303E-9
1.560208E+3,	60.446433E-9
1.560212E+3,	61.022919E-9
1.560216E+3,	61.435650E-9
1.560220E+3,	61.611031E-9
1.560224E+3,	61.608796E-9
1.560228E+3,	61.421335E-9
1.560232E+3,	61.207809E-9
1.560236E+3,	60.678069E-9
1.560240E+3,	60.067571E-9
1.560244E+3,	59.579583E-9
1.560248E+3,	58.855747E-9
1.560252E+3,	58.255038E-9
1.560256E+3,	57.863155E-9
1.560260E+3,	57.620899E-9
1.560264E+3,	57.582128E-9
1.560268E+3,	57.630916E-9
1.560272E+3,	57.744921E-9
1.560276E+3,	58.042097E-9
1.560280E+3,	58.388889E-9
1.560284E+3,	58.679630E-9
1.560288E+3,	59.033327E-9
1.560292E+3,	59.264573E-9
1.560296E+3,	59.380993E-9
1.560300E+3,	59.317596E-9
1.560304E+3,	59.113557E-9
1.560308E+3,	58.849071E-9
1.560312E+3,	58.469850E-9
1.560316E+3,	57.856005E-9
1.560320E+3,	57.201871E-9
1.560324E+3,	56.786559E-9
1.560328E+3,	56.315834E-9
1.560332E+3,	56.003915E-9
1.560336E+3,	55.937200E-9
1.560340E+3,	55.976197E-9
1.560344E+3,	56.151456E-9
1.560348E+3,	56.451389E-9
1.560352E+3,	56.941285E-9
1.560356E+3,	57.529218E-9
1.560360E+3,	58.066070E-9
1.560364E+3,	58.636283E-9
1.560368E+3,	59.189534E-9
1.560372E+3,	59.675722E-9
1.560376E+3,	59.908626E-9
1.560380E+3,	59.985799E-9
1.560384E+3,	59.919112E-9
1.560388E+3,	59.729051E-9
1.560392E+3,	59.355535E-9
1.560396E+3,	58.962786E-9
1.560400E+3,	58.540932E-9
1.560404E+3,	57.990688E-9
1.560408E+3,	57.568525E-9
1.560412E+3,	57.218522E-9
1.560416E+3,	57.035850E-9
1.560420E+3,	56.953057E-9
1.560424E+3,	57.037334E-9
1.560428E+3,	57.229456E-9
1.560432E+3,	57.670265E-9
1.560436E+3,	58.226222E-9
1.560440E+3,	58.670295E-9
1.560444E+3,	59.277674E-9
1.560448E+3,	59.662728E-9
1.560452E+3,	59.880139E-9
1.560456E+3,	59.974234E-9
1.560460E+3,	59.867756E-9
1.560464E+3,	59.699564E-9
1.560468E+3,	59.326310E-9
1.560472E+3,	58.703073E-9
1.560476E+3,	58.120070E-9
1.560480E+3,	57.646742E-9
1.560484E+3,	56.950808E-9
1.560488E+3,	56.474014E-9
1.560492E+3,	56.196404E-9
1.560496E+3,	55.966368E-9
1.560500E+3,	55.941651E-9
1.560504E+3,	56.143157E-9
1.560508E+3,	56.626819E-9
1.560512E+3,	57.062677E-9
1.560516E+3,	57.601925E-9
1.560520E+3,	58.203663E-9
1.560524E+3,	58.737900E-9
1.560528E+3,	59.233858E-9
1.560532E+3,	59.564579E-9
1.560536E+3,	59.818806E-9
1.560540E+3,	59.852473E-9
1.560544E+3,	59.750506E-9
1.560548E+3,	59.359652E-9
1.560552E+3,	59.045633E-9
1.560556E+3,	58.684596E-9
1.560560E+3,	58.151224E-9
1.560564E+3,	57.707535E-9
1.560568E+3,	57.351179E-9
1.560572E+3,	57.087776E-9
1.560576E+3,	57.080312E-9
1.560580E+3,	57.122097E-9
1.560584E+3,	57.246230E-9
1.560588E+3,	57.600116E-9
1.560592E+3,	57.961175E-9
1.560596E+3,	58.259464E-9
1.560600E+3,	58.761034E-9
1.560604E+3,	59.134444E-9
1.560608E+3,	59.383213E-9
1.560612E+3,	59.542555E-9
1.560616E+3,	59.522765E-9
1.560620E+3,	59.307929E-9
1.560624E+3,	58.933626E-9
1.560628E+3,	58.358263E-9
1.560632E+3,	57.870540E-9
1.560636E+3,	57.320614E-9
1.560640E+3,	56.483338E-9
1.560644E+3,	55.846898E-9
1.560648E+3,	55.519435E-9
1.560652E+3,	55.088193E-9
1.560656E+3,	54.904809E-9
1.560660E+3,	55.012082E-9
1.560664E+3,	55.184072E-9
1.560668E+3,	55.545017E-9
1.560672E+3,	55.992900E-9
1.560676E+3,	56.657961E-9
1.560680E+3,	57.340048E-9
1.560684E+3,	57.977624E-9
1.560688E+3,	58.532703E-9
1.560692E+3,	58.962688E-9
1.560696E+3,	59.268329E-9
1.560700E+3,	59.397212E-9
1.560704E+3,	59.304870E-9
1.560708E+3,	59.075932E-9
1.560712E+3,	58.722013E-9
1.560716E+3,	58.250582E-9
1.560720E+3,	57.705264E-9
1.560724E+3,	57.303185E-9
1.560728E+3,	56.866608E-9
1.560732E+3,	56.631068E-9
1.560736E+3,	56.445127E-9
1.560740E+3,	56.324531E-9
1.560744E+3,	56.439325E-9
1.560748E+3,	56.717909E-9
1.560752E+3,	56.947965E-9
1.560756E+3,	57.392362E-9
1.560760E+3,	57.774015E-9
1.560764E+3,	57.974334E-9
1.560768E+3,	58.187415E-9
1.560772E+3,	58.286526E-9
1.560776E+3,	58.219749E-9
1.560780E+3,	58.054980E-9
1.560784E+3,	57.709617E-9
1.560788E+3,	57.360915E-9
1.560792E+3,	56.936103E-9
1.560796E+3,	56.331314E-9
1.560800E+3,	55.734501E-9
1.560804E+3,	55.341891E-9
1.560808E+3,	54.890934E-9
1.560812E+3,	54.509945E-9
1.560816E+3,	54.325025E-9
1.560820E+3,	54.223175E-9
1.560824E+3,	54.262328E-9
1.560828E+3,	54.458397E-9
1.560832E+3,	54.798102E-9
1.560836E+3,	55.112507E-9
1.560840E+3,	55.481698E-9
1.560844E+3,	55.919584E-9
1.560848E+3,	56.292214E-9
1.560852E+3,	56.593905E-9
1.560856E+3,	56.811642E-9
1.560860E+3,	56.875361E-9
1.560864E+3,	56.730347E-9
1.560868E+3,	56.539796E-9
1.560872E+3,	56.110248E-9
1.560876E+3,	55.719687E-9
1.560880E+3,	55.369687E-9
1.560884E+3,	54.842441E-9
1.560888E+3,	54.492395E-9
1.560892E+3,	54.227497E-9
1.560896E+3,	53.974131E-9
1.560900E+3,	53.893845E-9
1.560904E+3,	53.902520E-9
1.560908E+3,	53.921054E-9
1.560912E+3,	54.126272E-9
1.560916E+3,	54.370020E-9
1.560920E+3,	54.523825E-9
1.560924E+3,	54.797645E-9
1.560928E+3,	54.946616E-9
1.560932E+3,	55.010118E-9
1.560936E+3,	54.909962E-9
1.560940E+3,	54.658373E-9
1.560944E+3,	54.388893E-9
1.560948E+3,	53.985795E-9
1.560952E+3,	53.394778E-9
1.560956E+3,	52.903166E-9
1.560960E+3,	52.495449E-9
1.560964E+3,	51.954195E-9
1.560968E+3,	51.622584E-9
1.560972E+3,	51.491725E-9
1.560976E+3,	51.438507E-9
1.560980E+3,	51.483447E-9
1.560984E+3,	51.696669E-9
1.560988E+3,	52.083469E-9
1.560992E+3,	52.483741E-9
1.560996E+3,	52.849509E-9
1.561000E+3,	53.279950E-9
1.561004E+3,	53.640643E-9
1.561008E+3,	53.839925E-9
1.561012E+3,	53.956448E-9
1.561016E+3,	53.891775E-9
1.561020E+3,	53.726982E-9
1.561024E+3,	53.608708E-9
1.561028E+3,	53.295325E-9
1.561032E+3,	52.862311E-9
1.561036E+3,	52.560192E-9
1.561040E+3,	52.154288E-9
1.561044E+3,	51.771491E-9
1.561048E+3,	51.608169E-9
1.561052E+3,	51.516661E-9
1.561056E+3,	51.610899E-9
1.561060E+3,	51.766328E-9
1.561064E+3,	52.024323E-9
1.561068E+3,	52.442798E-9
1.561072E+3,	52.848491E-9
1.561076E+3,	53.263430E-9
1.561080E+3,	53.771036E-9
1.561084E+3,	54.170166E-9
1.561088E+3,	54.376162E-9
1.561092E+3,	54.531102E-9
1.561096E+3,	54.604022E-9
1.561100E+3,	54.528699E-9
1.561104E+3,	54.296983E-9
1.561108E+3,	53.917200E-9
1.561112E+3,	53.510129E-9
1.561116E+3,	52.929993E-9
1.561120E+3,	52.411246E-9
1.561124E+3,	52.009199E-9
1.561128E+3,	51.646641E-9
1.561132E+3,	51.382421E-9
1.561136E+3,	51.262269E-9
1.561140E+3,	51.291888E-9
1.561144E+3,	51.497502E-9
1.561148E+3,	51.738694E-9
1.561152E+3,	52.174385E-9
1.561156E+3,	52.708247E-9
1.561160E+3,	53.108318E-9
1.561164E+3,	53.486767E-9
1.561168E+3,	53.881577E-9
1.561172E+3,	54.093814E-9
1.561176E+3,	54.132312E-9
1.561180E+3,	53.998720E-9
1.561184E+3,	53.723399E-9
1.561188E+3,	53.408733E-9
1.561192E+3,	52.994517E-9
1.561196E+3,	52.622713E-9
1.561200E+3,	52.325148E-9
1.561204E+3,	51.950340E-9
1.561208E+3,	51.632980E-9
1.561212E+3,	51.457654E-9
1.561216E+3,	51.375308E-9
1.561220E+3,	51.381580E-9
1.561224E+3,	51.496001E-9
1.561228E+3,	51.624307E-9
1.561232E+3,	51.819398E-9
1.561236E+3,	52.014694E-9
1.561240E+3,	52.254598E-9
1.561244E+3,	52.453611E-9
1.561248E+3,	52.609784E-9
1.561252E+3,	52.622951E-9
1.561256E+3,	52.508189E-9
1.561260E+3,	52.311070E-9
1.561264E+3,	52.146939E-9
1.561268E+3,	51.808538E-9
1.561272E+3,	51.378946E-9
1.561276E+3,	51.029194E-9
1.561280E+3,	50.603312E-9
1.561284E+3,	50.134471E-9
1.561288E+3,	49.901549E-9
1.561292E+3,	49.675249E-9
1.561296E+3,	49.554890E-9
1.561300E+3,	49.537403E-9
1.561304E+3,	49.526222E-9
1.561308E+3,	49.647657E-9
1.561312E+3,	49.803755E-9
1.561316E+3,	49.890707E-9
1.561320E+3,	50.096687E-9
1.561324E+3,	50.242187E-9
1.561328E+3,	50.235638E-9
1.561332E+3,	50.209486E-9
1.561336E+3,	50.216999E-9
1.561340E+3,	50.129648E-9
1.561344E+3,	49.905999E-9
1.561348E+3,	49.636860E-9
1.561352E+3,	49.319342E-9
1.561356E+3,	48.883149E-9
1.561360E+3,	48.527717E-9
1.561364E+3,	48.228385E-9
1.561368E+3,	47.948561E-9
1.561372E+3,	47.745331E-9
1.561376E+3,	47.670835E-9
1.561380E+3,	47.664301E-9
1.561384E+3,	47.768389E-9
1.561388E+3,	47.934038E-9
1.561392E+3,	48.115199E-9
1.561396E+3,	48.317440E-9
1.561400E+3,	48.421139E-9
1.561404E+3,	48.438667E-9
1.561408E+3,	48.478816E-9
1.561412E+3,	48.397082E-9
1.561416E+3,	48.205626E-9
1.561420E+3,	47.846251E-9
1.561424E+3,	47.468261E-9
1.561428E+3,	47.119554E-9
1.561432E+3,	46.676863E-9
1.561436E+3,	46.314715E-9
1.561440E+3,	46.045183E-9
1.561444E+3,	45.698411E-9
1.561448E+3,	45.478933E-9
1.561452E+3,	45.368792E-9
1.561456E+3,	45.346039E-9
1.561460E+3,	45.381872E-9
1.561464E+3,	45.501648E-9
1.561468E+3,	45.625180E-9
1.561472E+3,	45.743487E-9
1.561476E+3,	45.935818E-9
1.561480E+3,	46.000735E-9
1.561484E+3,	46.026501E-9
1.561488E+3,	45.995215E-9
1.561492E+3,	45.861837E-9
1.561496E+3,	45.528026E-9
1.561500E+3,	45.182596E-9
1.561504E+3,	44.907761E-9
1.561508E+3,	44.493500E-9
1.561512E+3,	44.116179E-9
1.561516E+3,	43.803703E-9
1.561520E+3,	43.421093E-9
1.561524E+3,	43.092855E-9
1.561528E+3,	42.908232E-9
1.561532E+3,	42.743383E-9
1.561536E+3,	42.656600E-9
1.561540E+3,	42.605978E-9
1.561544E+3,	42.616137E-9
1.561548E+3,	42.698356E-9
1.561552E+3,	42.809472E-9
1.561556E+3,	42.899952E-9
1.561560E+3,	43.002144E-9
1.561564E+3,	43.066716E-9
1.561568E+3,	43.004848E-9
1.561572E+3,	42.877494E-9
1.561576E+3,	42.710495E-9
1.561580E+3,	42.402909E-9
1.561584E+3,	41.976796E-9
1.561588E+3,	41.553992E-9
1.561592E+3,	41.096935E-9
1.561596E+3,	40.552144E-9
1.561600E+3,	40.061871E-9
1.561604E+3,	39.658963E-9
1.561608E+3,	39.274917E-9
1.561612E+3,	38.932252E-9
1.561616E+3,	38.778029E-9
1.561620E+3,	38.679791E-9
1.561624E+3,	38.682014E-9
1.561628E+3,	38.686383E-9
1.561632E+3,	38.743477E-9
1.561636E+3,	38.811275E-9
1.561640E+3,	38.809603E-9
1.561644E+3,	38.824467E-9
1.561648E+3,	38.760525E-9
1.561652E+3,	38.561495E-9
1.561656E+3,	38.359940E-9
1.561660E+3,	38.000494E-9
1.561664E+3,	37.562593E-9
1.561668E+3,	37.170332E-9
1.561672E+3,	36.608053E-9
1.561676E+3,	36.120941E-9
1.561680E+3,	35.776971E-9
1.561684E+3,	35.401779E-9
1.561688E+3,	35.031457E-9
1.561692E+3,	34.793108E-9
1.561696E+3,	34.630623E-9
1.561700E+3,	34.548629E-9
1.561704E+3,	34.446517E-9
1.561708E+3,	34.456619E-9
1.561712E+3,	34.433979E-9
1.561716E+3,	34.390809E-9
1.561720E+3,	34.373780E-9
1.561724E+3,	34.245594E-9
1.561728E+3,	34.100835E-9
1.561732E+3,	33.968091E-9
1.561736E+3,	33.669911E-9
1.561740E+3,	33.292833E-9
1.561744E+3,	32.987104E-9
1.561748E+3,	32.533003E-9
1.561752E+3,	32.140860E-9
1.561756E+3,	31.809352E-9
1.561760E+3,	31.386193E-9
1.561764E+3,	30.975908E-9
1.561768E+3,	30.696406E-9
1.561772E+3,	30.434298E-9
1.561776E+3,	30.195927E-9
1.561780E+3,	29.993397E-9
1.561784E+3,	29.868608E-9
1.561788E+3,	29.756153E-9
1.561792E+3,	29.634428E-9
1.561796E+3,	29.531984E-9
1.561800E+3,	29.414243E-9
1.561804E+3,	29.275842E-9
1.561808E+3,	29.090195E-9
1.561812E+3,	28.807322E-9
1.561816E+3,	28.527461E-9
1.561820E+3,	28.194862E-9
1.561824E+3,	27.756727E-9
1.561828E+3,	27.419712E-9
1.561832E+3,	27.096444E-9
1.561836E+3,	26.571555E-9
1.561840E+3,	26.206036E-9
1.561844E+3,	25.900242E-9
1.561848E+3,	25.512287E-9
1.561852E+3,	25.177590E-9
1.561856E+3,	24.957477E-9
1.561860E+3,	24.750370E-9
1.561864E+3,	24.516306E-9
1.561868E+3,	24.347795E-9
1.561872E+3,	24.262684E-9
1.561876E+3,	24.103391E-9
1.561880E+3,	23.974879E-9
1.561884E+3,	23.810990E-9
1.561888E+3,	23.525140E-9
1.561892E+3,	23.204961E-9
1.561896E+3,	22.970406E-9
1.561900E+3,	22.590346E-9
1.561904E+3,	22.209460E-9
1.561908E+3,	21.903713E-9
1.561912E+3,	21.500515E-9
1.561916E+3,	21.093690E-9
1.561920E+3,	20.839734E-9
1.561924E+3,	20.576252E-9
1.561928E+3,	20.308018E-9
1.561932E+3,	20.056636E-9
1.561936E+3,	19.907363E-9
1.561940E+3,	19.666676E-9
1.561944E+3,	19.485792E-9
1.561948E+3,	19.333758E-9
1.561952E+3,	19.119921E-9
1.561956E+3,	18.941119E-9
1.561960E+3,	18.771942E-9
1.561964E+3,	18.509776E-9
1.561968E+3,	18.260485E-9
1.561972E+3,	18.016462E-9
1.561976E+3,	17.665517E-9
1.561980E+3,	17.305335E-9
1.561984E+3,	17.050676E-9
1.561988E+3,	16.643808E-9
1.561992E+3,	16.295131E-9
1.561996E+3,	16.068925E-9
1.562000E+3,	15.766171E-9
1.562004E+3,	15.463471E-9
1.562008E+3,	15.245158E-9
1.562012E+3,	15.041895E-9
1.562016E+3,	14.811636E-9
1.562020E+3,	14.631558E-9
1.562024E+3,	14.471759E-9
1.562028E+3,	14.272621E-9
1.562032E+3,	14.067005E-9
1.562036E+3,	13.897992E-9
1.562040E+3,	13.649737E-9
1.562044E+3,	13.404897E-9
1.562048E+3,	13.187749E-9
1.562052E+3,	12.848303E-9
1.562056E+3,	12.591789E-9
1.562060E+3,	12.341568E-9
1.562064E+3,	11.997180E-9
1.562068E+3,	11.712950E-9
1.562072E+3,	11.488201E-9
1.562076E+3,	11.176712E-9
1.562080E+3,	10.963866E-9
1.562084E+3,	10.780685E-9
1.562088E+3,	10.577330E-9
1.562092E+3,	10.417354E-9
1.562096E+3,	10.337166E-9
1.562100E+3,	10.196920E-9
1.562104E+3,	10.108539E-9
1.562108E+3,	10.016233E-9
1.562112E+3,	9.914839E-9
1.562116E+3,	9.807316E-9
1.562120E+3,	9.706618E-9
1.562124E+3,	9.562132E-9
1.562128E+3,	9.386403E-9
1.562132E+3,	9.242490E-9
1.562136E+3,	9.061441E-9
1.562140E+3,	8.889595E-9
1.562144E+3,	8.731572E-9
1.562148E+3,	8.547610E-9
1.562152E+3,	8.377505E-9
1.562156E+3,	8.211811E-9
1.562160E+3,	8.032678E-9
1.562164E+3,	7.897374E-9
1.562168E+3,	7.803516E-9
1.562172E+3,	7.653872E-9
1.562176E+3,	7.571026E-9
1.562180E+3,	7.469618E-9
1.562184E+3,	7.363293E-9
1.562188E+3,	7.268641E-9
1.562192E+3,	7.143847E-9
1.562196E+3,	7.036764E-9
1.562200E+3,	6.903785E-9
1.562204E+3,	6.766583E-9
1.562208E+3,	6.591522E-9
1.562212E+3,	6.402625E-9
1.562216E+3,	6.257644E-9
1.562220E+3,	6.029398E-9
1.562224E+3,	5.811947E-9
1.562228E+3,	5.668329E-9
1.562232E+3,	5.499644E-9
1.562236E+3,	5.321253E-9
1.562240E+3,	5.144684E-9
1.562244E+3,	5.033819E-9
1.562248E+3,	4.905962E-9
1.562252E+3,	4.797321E-9
1.562256E+3,	4.709295E-9
1.562260E+3,	4.592570E-9
1.562264E+3,	4.516297E-9
1.562268E+3,	4.455138E-9
1.562272E+3,	4.385631E-9
1.562276E+3,	4.323032E-9
1.562280E+3,	4.249287E-9
1.562284E+3,	4.174606E-9
1.562288E+3,	4.047660E-9
1.562292E+3,	3.998340E-9
1.562296E+3,	3.899149E-9
1.562300E+3,	3.780523E-9
1.562304E+3,	3.716202E-9
1.562308E+3,	3.614304E-9
1.562312E+3,	3.524770E-9
1.562316E+3,	3.463290E-9
1.562320E+3,	3.364210E-9
1.562324E+3,	3.291875E-9
1.562328E+3,	3.259554E-9
1.562332E+3,	3.182032E-9
1.562336E+3,	3.120288E-9
1.562340E+3,	3.068198E-9
1.562344E+3,	2.994260E-9
1.562348E+3,	2.921171E-9
1.562352E+3,	2.898181E-9
1.562356E+3,	2.824301E-9
1.562360E+3,	2.752015E-9
1.562364E+3,	2.704227E-9
1.562368E+3,	2.621925E-9
1.562372E+3,	2.552655E-9
1.562376E+3,	2.476436E-9
1.562380E+3,	2.396223E-9
1.562384E+3,	2.328183E-9
1.562388E+3,	2.246617E-9
1.562392E+3,	2.158976E-9
1.562396E+3,	2.083219E-9
1.562400E+3,	2.040878E-9
1.562404E+3,	1.950916E-9
1.562408E+3,	1.895306E-9
1.562412E+3,	1.822360E-9
1.562416E+3,	1.759077E-9
1.562420E+3,	1.698053E-9
1.562424E+3,	1.647479E-9
1.562428E+3,	1.611720E-9
1.562432E+3,	1.547511E-9
1.562436E+3,	1.503054E-9
1.562440E+3,	1.467049E-9
1.562444E+3,	1.399363E-9
1.562448E+3,	1.377781E-9
1.562452E+3,	1.350467E-9
1.562456E+3,	1.301495E-9
1.562460E+3,	1.274172E-9
1.562464E+3,	1.230275E-9
1.562468E+3,	1.194092E-9
1.562472E+3,	1.182305E-9
1.562476E+3,	1.165059E-9
1.562480E+3,	1.136252E-9
1.562484E+3,	1.110024E-9
1.562488E+3,	1.088514E-9
1.562492E+3,	1.097033E-9
1.562496E+3,	1.064930E-9
1.562500E+3,	1.066626E-9
1.562504E+3,	1.037701E-9
1.562508E+3,	1.050857E-9
1.562512E+3,	1.022822E-9
1.562516E+3,	1.003958E-9
1.562520E+3,	987.739993E-12
1.562524E+3,	991.297584E-12
1.562528E+3,	962.377247E-12
1.562532E+3,	903.678416E-12
1.562536E+3,	902.987206E-12
1.562540E+3,	889.694720E-12
1.562544E+3,	861.411637E-12
1.562548E+3,	871.424651E-12
1.562552E+3,	836.608944E-12
1.562556E+3,	827.705665E-12
1.562560E+3,	810.425084E-12
1.562564E+3,	805.731795E-12
1.562568E+3,	779.177429E-12
1.562572E+3,	771.228810E-12
1.562576E+3,	755.474505E-12
1.562580E+3,	739.294262E-12
1.562584E+3,	740.805655E-12
1.562588E+3,	712.715770E-12
1.562592E+3,	704.773304E-12
1.562596E+3,	674.016313E-12
1.562600E+3,	677.056517E-12
1.562604E+3,	637.370577E-12
1.562608E+3,	621.627099E-12
1.562612E+3,	607.597166E-12
1.562616E+3,	603.081989E-12
1.562620E+3,	568.703738E-12
1.562624E+3,	563.066422E-12
1.562628E+3,	548.711416E-12
1.562632E+3,	534.596489E-12
1.562636E+3,	547.575004E-12
1.562640E+3,	538.706955E-12
1.562644E+3,	556.318361E-12
1.562648E+3,	525.355850E-12
1.562652E+3,	536.570667E-12
1.562656E+3,	521.747185E-12
1.562660E+3,	538.106792E-12
1.562664E+3,	555.445289E-12
1.562668E+3,	540.606827E-12
1.562672E+3,	559.854071E-12
1.562676E+3,	549.389166E-12
1.562680E+3,	552.985559E-12
1.562684E+3,	571.055347E-12
1.562688E+3,	566.068450E-12
1.562692E+3,	566.759213E-12
1.562696E+3,	568.304768E-12
1.562700E+3,	573.718533E-12
1.562704E+3,	560.871848E-12
1.562708E+3,	573.363877E-12
1.562712E+3,	564.429561E-12
1.562716E+3,	574.526657E-12
1.562720E+3,	576.830830E-12
1.562724E+3,	578.514528E-12
1.562728E+3,	579.211723E-12
1.562732E+3,	577.321308E-12
1.562736E+3,	575.441259E-12
1.562740E+3,	572.112286E-12
1.562744E+3,	574.332350E-12
1.562748E+3,	568.837385E-12
1.562752E+3,	533.099419E-12
1.562756E+3,	557.734889E-12
1.562760E+3,	541.223290E-12
1.562764E+3,	523.355528E-12
1.562768E+3,	519.650492E-12
1.562772E+3,	517.090876E-12
1.562776E+3,	507.668899E-12
1.562780E+3,	514.840201E-12
1.562784E+3,	493.819462E-12
1.562788E+3,	476.924048E-12
1.562792E+3,	452.552899E-12
1.562796E+3,	455.434178E-12
1.562800E+3,	467.520647E-12
1.562804E+3,	451.978737E-12
1.562808E+3,	453.446286E-12
1.562812E+3,	452.117547E-12
1.562816E+3,	436.377161E-12
1.562820E+3,	445.698675E-12
1.562824E+3,	436.104785E-12
1.562828E+3,	450.359903E-12
1.562832E+3,	434.660346E-12
1.562836E+3,	435.688389E-12
1.562840E+3,	457.013815E-12
1.562844E+3,	429.230885E-12
1.562848E+3,	428.205582E-12
1.562852E+3,	454.073053E-12
1.562856E+3,	436.000158E-12
1.562860E+3,	454.720038E-12
1.562864E+3,	449.231064E-12
1.562868E+3,	450.934627E-12
1.562872E+3,	438.590940E-12
1.562876E+3,	459.090028E-12
1.562880E+3,	452.907497E-12
1.562884E+3,	462.566552E-12
1.562888E+3,	462.388135E-12
1.562892E+3,	452.145735E-12
1.562896E+3,	463.201233E-12
1.562900E+3,	467.895750E-12
1.562904E+3,	451.454632E-12
1.562908E+3,	440.165849E-12
1.562912E+3,	446.880821E-12
1.562916E+3,	452.427878E-12
1.562920E+3,	436.014145E-12
1.562924E+3,	447.798469E-12
1.562928E+3,	424.525829E-12
1.562932E+3,	426.274090E-12
1.562936E+3,	433.894988E-12
1.562940E+3,	412.527886E-12
1.562944E+3,	417.868224E-12
1.562948E+3,	409.713805E-12
1.562952E+3,	398.050209E-12
1.562956E+3,	367.765033E-12
1.562960E+3,	370.484847E-12
1.562964E+3,	376.802223E-12
1.562968E+3,	360.241938E-12
1.562972E+3,	360.974733E-12
1.562976E+3,	366.646404E-12
1.562980E+3,	363.418230E-12
1.562984E+3,	348.008340E-12
1.562988E+3,	324.525007E-12
1.562992E+3,	347.422643E-12
1.562996E+3,	335.863275E-12
1.563000E+3,	312.317644E-12
