YOKOGAWA AQ6370D - S/N: 91S206859
#Date: 17/07/2023 Time: 14:32:20,	
A_WL(nm),	A_I(mW)
1.555500E+3,	32.609686E-12
1.555504E+3,	16.450783E-12
1.555508E+3,	37.135672E-12
1.555512E+3,	42.091813E-12
1.555516E+3,	54.751653E-12
1.555520E+3,	48.972341E-12
1.555524E+3,	66.030918E-12
1.555528E+3,	93.299055E-12
1.555532E+3,	93.054251E-12
1.555536E+3,	64.153792E-12
1.555540E+3,	65.990008E-12
1.555544E+3,	58.859344E-12
1.555548E+3,	25.023240E-12
1.555552E+3,	16.379744E-12
1.555556E+3,	11.713633E-12
1.555560E+3,	21.086139E-12
1.555564E+3,	9.805801E-12
1.555568E+3,	11.303713E-12
1.555572E+3,	20.331549E-12
1.555576E+3,	31.776105E-12
1.555580E+3,	46.276875E-12
1.555584E+3,	60.859670E-12
1.555588E+3,	61.439714E-12
1.555592E+3,	83.802808E-12
1.555596E+3,	104.135362E-12
1.555600E+3,	99.703791E-12
1.555604E+3,	89.041916E-12
1.555608E+3,	69.597010E-12
1.555612E+3,	84.286584E-12
1.555616E+3,	59.601038E-12
1.555620E+3,	58.546182E-12
1.555624E+3,	31.606815E-12
1.555628E+3,	44.909488E-12
1.555632E+3,	29.525471E-12
1.555636E+3,	8.756530E-12
1.555640E+3,	3.545603E-12
1.555644E+3,	0.000000E+0
1.555648E+3,	3.156262E-12
1.555652E+3,	21.120332E-12
1.555656E+3,	30.952006E-12
1.555660E+3,	40.090158E-12
1.555664E+3,	67.830988E-12
1.555668E+3,	90.114022E-12
1.555672E+3,	73.935306E-12
1.555676E+3,	74.893257E-12
1.555680E+3,	94.834176E-12
1.555684E+3,	112.650852E-12
1.555688E+3,	101.599498E-12
1.555692E+3,	93.612504E-12
1.555696E+3,	78.182245E-12
1.555700E+3,	62.439062E-12
1.555704E+3,	74.701294E-12
1.555708E+3,	43.019241E-12
1.555712E+3,	23.414359E-12
1.555716E+3,	8.129425E-12
1.555720E+3,	26.380789E-12
1.555724E+3,	37.665435E-12
1.555728E+3,	30.516786E-12
1.555732E+3,	42.449657E-12
1.555736E+3,	56.776800E-12
1.555740E+3,	65.928120E-12
1.555744E+3,	90.037246E-12
1.555748E+3,	104.084446E-12
1.555752E+3,	144.893381E-12
1.555756E+3,	112.400145E-12
1.555760E+3,	110.170872E-12
1.555764E+3,	113.961757E-12
1.555768E+3,	103.830832E-12
1.555772E+3,	79.126038E-12
1.555776E+3,	84.907506E-12
1.555780E+3,	66.268567E-12
1.555784E+3,	56.120597E-12
1.555788E+3,	14.717441E-12
1.555792E+3,	11.944032E-12
1.555796E+3,	11.869392E-12
1.555800E+3,	26.251869E-12
1.555804E+3,	26.744011E-12
1.555808E+3,	33.219694E-12
1.555812E+3,	44.811329E-12
1.555816E+3,	70.073782E-12
1.555820E+3,	87.924963E-12
1.555824E+3,	136.528517E-12
1.555828E+3,	117.904018E-12
1.555832E+3,	156.691969E-12
1.555836E+3,	134.610870E-12
1.555840E+3,	148.591792E-12
1.555844E+3,	142.792283E-12
1.555848E+3,	123.691632E-12
1.555852E+3,	124.546820E-12
1.555856E+3,	90.362833E-12
1.555860E+3,	44.451933E-12
1.555864E+3,	56.317909E-12
1.555868E+3,	2.691987E-12
1.555872E+3,	17.318625E-12
1.555876E+3,	15.272221E-12
1.555880E+3,	28.410873E-12
1.555884E+3,	61.834165E-12
1.555888E+3,	92.723424E-12
1.555892E+3,	117.279540E-12
1.555896E+3,	129.018204E-12
1.555900E+3,	152.339282E-12
1.555904E+3,	172.015969E-12
1.555908E+3,	200.176983E-12
1.555912E+3,	221.765986E-12
1.555916E+3,	216.215162E-12
1.555920E+3,	199.386348E-12
1.555924E+3,	203.634851E-12
1.555928E+3,	185.674118E-12
1.555932E+3,	138.292683E-12
1.555936E+3,	100.182994E-12
1.555940E+3,	69.379328E-12
1.555944E+3,	52.879403E-12
1.555948E+3,	46.310327E-12
1.555952E+3,	9.949119E-12
1.555956E+3,	35.700583E-12
1.555960E+3,	43.089722E-12
1.555964E+3,	94.321024E-12
1.555968E+3,	147.561334E-12
1.555972E+3,	147.175396E-12
1.555976E+3,	212.590011E-12
1.555980E+3,	247.330241E-12
1.555984E+3,	258.677212E-12
1.555988E+3,	287.241473E-12
1.555992E+3,	292.446096E-12
1.555996E+3,	278.154477E-12
1.556000E+3,	295.514020E-12
1.556004E+3,	270.546442E-12
1.556008E+3,	224.751809E-12
1.556012E+3,	196.193667E-12
1.556016E+3,	137.586184E-12
1.556020E+3,	116.017181E-12
1.556024E+3,	98.169071E-12
1.556028E+3,	81.178398E-12
1.556032E+3,	82.819549E-12
1.556036E+3,	69.898919E-12
1.556040E+3,	106.697874E-12
1.556044E+3,	132.270471E-12
1.556048E+3,	175.797777E-12
1.556052E+3,	248.634126E-12
1.556056E+3,	290.921909E-12
1.556060E+3,	336.577147E-12
1.556064E+3,	337.141660E-12
1.556068E+3,	390.230221E-12
1.556072E+3,	413.855939E-12
1.556076E+3,	384.086282E-12
1.556080E+3,	360.973786E-12
1.556084E+3,	334.341082E-12
1.556088E+3,	293.555674E-12
1.556092E+3,	241.695236E-12
1.556096E+3,	186.813975E-12
1.556100E+3,	155.805968E-12
1.556104E+3,	103.807294E-12
1.556108E+3,	82.792923E-12
1.556112E+3,	74.100631E-12
1.556116E+3,	104.589384E-12
1.556120E+3,	117.335279E-12
1.556124E+3,	155.415267E-12
1.556128E+3,	219.299334E-12
1.556132E+3,	251.301765E-12
1.556136E+3,	321.004475E-12
1.556140E+3,	388.272731E-12
1.556144E+3,	431.706953E-12
1.556148E+3,	463.709818E-12
1.556152E+3,	458.285283E-12
1.556156E+3,	476.732020E-12
1.556160E+3,	434.764943E-12
1.556164E+3,	396.108913E-12
1.556168E+3,	332.653347E-12
1.556172E+3,	263.537527E-12
1.556176E+3,	196.090433E-12
1.556180E+3,	128.584221E-12
1.556184E+3,	80.356823E-12
1.556188E+3,	52.342067E-12
1.556192E+3,	48.313101E-12
1.556196E+3,	86.058710E-12
1.556200E+3,	130.487361E-12
1.556204E+3,	198.488671E-12
1.556208E+3,	236.646239E-12
1.556212E+3,	330.251609E-12
1.556216E+3,	401.126356E-12
1.556220E+3,	449.390520E-12
1.556224E+3,	487.168212E-12
1.556228E+3,	499.707610E-12
1.556232E+3,	533.338213E-12
1.556236E+3,	519.886899E-12
1.556240E+3,	446.621994E-12
1.556244E+3,	391.802480E-12
1.556248E+3,	343.860981E-12
1.556252E+3,	247.456773E-12
1.556256E+3,	175.731030E-12
1.556260E+3,	106.162287E-12
1.556264E+3,	91.003562E-12
1.556268E+3,	75.003368E-12
1.556272E+3,	70.749060E-12
1.556276E+3,	102.100478E-12
1.556280E+3,	162.271867E-12
1.556284E+3,	213.839517E-12
1.556288E+3,	322.407924E-12
1.556292E+3,	390.524907E-12
1.556296E+3,	461.426973E-12
1.556300E+3,	493.738313E-12
1.556304E+3,	498.228042E-12
1.556308E+3,	497.296942E-12
1.556312E+3,	459.820671E-12
1.556316E+3,	396.979998E-12
1.556320E+3,	323.282915E-12
1.556324E+3,	273.017776E-12
1.556328E+3,	203.052698E-12
1.556332E+3,	136.897077E-12
1.556336E+3,	86.399741E-12
1.556340E+3,	56.977111E-12
1.556344E+3,	53.015427E-12
1.556348E+3,	73.236942E-12
1.556352E+3,	110.922893E-12
1.556356E+3,	167.754226E-12
1.556360E+3,	236.675009E-12
1.556364E+3,	302.032650E-12
1.556368E+3,	378.230752E-12
1.556372E+3,	415.294111E-12
1.556376E+3,	436.940879E-12
1.556380E+3,	430.743639E-12
1.556384E+3,	422.128461E-12
1.556388E+3,	387.393309E-12
1.556392E+3,	315.451342E-12
1.556396E+3,	236.621796E-12
1.556400E+3,	211.614455E-12
1.556404E+3,	124.470947E-12
1.556408E+3,	87.012698E-12
1.556412E+3,	46.266799E-12
1.556416E+3,	56.557477E-12
1.556420E+3,	69.528716E-12
1.556424E+3,	109.619994E-12
1.556428E+3,	160.811540E-12
1.556432E+3,	198.967824E-12
1.556436E+3,	269.932744E-12
1.556440E+3,	331.470360E-12
1.556444E+3,	366.279819E-12
1.556448E+3,	421.821432E-12
1.556452E+3,	472.854967E-12
1.556456E+3,	484.606695E-12
1.556460E+3,	459.691984E-12
1.556464E+3,	456.122120E-12
1.556468E+3,	377.586397E-12
1.556472E+3,	349.246239E-12
1.556476E+3,	306.897132E-12
1.556480E+3,	230.610586E-12
1.556484E+3,	173.693750E-12
1.556488E+3,	142.007774E-12
1.556492E+3,	102.769300E-12
1.556496E+3,	115.455675E-12
1.556500E+3,	165.783984E-12
1.556504E+3,	308.958947E-12
1.556508E+3,	525.449457E-12
1.556512E+3,	783.772951E-12
1.556516E+3,	1.080567E-9
1.556520E+3,	1.462435E-9
1.556524E+3,	1.954282E-9
1.556528E+3,	2.457169E-9
1.556532E+3,	2.803606E-9
1.556536E+3,	3.190052E-9
1.556540E+3,	3.438903E-9
1.556544E+3,	3.491717E-9
1.556548E+3,	3.428771E-9
1.556552E+3,	3.125351E-9
1.556556E+3,	2.665024E-9
1.556560E+3,	2.228063E-9
1.556564E+3,	1.748297E-9
1.556568E+3,	1.232755E-9
1.556572E+3,	879.551039E-12
1.556576E+3,	789.457280E-12
1.556580E+3,	1.086715E-9
1.556584E+3,	1.794407E-9
1.556588E+3,	2.696701E-9
1.556592E+3,	4.033093E-9
1.556596E+3,	6.075277E-9
1.556600E+3,	8.223969E-9
1.556604E+3,	10.158752E-9
1.556608E+3,	12.261272E-9
1.556612E+3,	14.443037E-9
1.556616E+3,	15.878769E-9
1.556620E+3,	16.485153E-9
1.556624E+3,	16.425694E-9
1.556628E+3,	15.496239E-9
1.556632E+3,	14.082448E-9
1.556636E+3,	11.931303E-9
1.556640E+3,	8.981315E-9
1.556644E+3,	6.455564E-9
1.556648E+3,	4.668435E-9
1.556652E+3,	3.213735E-9
1.556656E+3,	2.698999E-9
1.556660E+3,	3.617907E-9
1.556664E+3,	5.616554E-9
1.556668E+3,	9.707587E-9
1.556672E+3,	14.550850E-9
1.556676E+3,	19.116630E-9
1.556680E+3,	24.521156E-9
1.556684E+3,	31.053658E-9
1.556688E+3,	36.344790E-9
1.556692E+3,	39.570255E-9
1.556696E+3,	41.720307E-9
1.556700E+3,	42.046862E-9
1.556704E+3,	40.331792E-9
1.556708E+3,	37.446345E-9
1.556712E+3,	31.887090E-9
1.556716E+3,	25.521878E-9
1.556720E+3,	20.306402E-9
1.556724E+3,	14.939365E-9
1.556728E+3,	9.947204E-9
1.556732E+3,	7.233896E-9
1.556736E+3,	6.914569E-9
1.556740E+3,	9.007875E-9
1.556744E+3,	15.058292E-9
1.556748E+3,	23.171398E-9
1.556752E+3,	31.032530E-9
1.556756E+3,	40.742262E-9
1.556760E+3,	52.841410E-9
1.556764E+3,	62.777379E-9
1.556768E+3,	69.360253E-9
1.556772E+3,	74.886431E-9
1.556776E+3,	76.383088E-9
1.556780E+3,	74.567362E-9
1.556784E+3,	69.931715E-9
1.556788E+3,	61.131788E-9
1.556792E+3,	50.951123E-9
1.556796E+3,	41.574732E-9
1.556800E+3,	31.818715E-9
1.556804E+3,	22.199035E-9
1.556808E+3,	16.374499E-9
1.556812E+3,	14.568793E-9
1.556816E+3,	16.319669E-9
1.556820E+3,	22.321934E-9
1.556824E+3,	30.477687E-9
1.556828E+3,	41.698406E-9
1.556832E+3,	56.484765E-9
1.556836E+3,	70.523939E-9
1.556840E+3,	81.587240E-9
1.556844E+3,	92.412727E-9
1.556848E+3,	101.541869E-9
1.556852E+3,	105.258789E-9
1.556856E+3,	104.090241E-9
1.556860E+3,	97.719689E-9
1.556864E+3,	88.130692E-9
1.556868E+3,	77.326167E-9
1.556872E+3,	63.422061E-9
1.556876E+3,	46.251500E-9
1.556880E+3,	32.674940E-9
1.556884E+3,	24.335692E-9
1.556888E+3,	18.909824E-9
1.556892E+3,	18.488733E-9
1.556896E+3,	23.743932E-9
1.556900E+3,	32.849079E-9
1.556904E+3,	50.131057E-9
1.556908E+3,	68.584766E-9
1.556912E+3,	84.619617E-9
1.556916E+3,	101.640575E-9
1.556920E+3,	118.494658E-9
1.556924E+3,	130.144447E-9
1.556928E+3,	135.765617E-9
1.556932E+3,	136.742949E-9
1.556936E+3,	130.277039E-9
1.556940E+3,	119.066294E-9
1.556944E+3,	106.798689E-9
1.556948E+3,	85.847705E-9
1.556952E+3,	64.461462E-9
1.556956E+3,	48.226228E-9
1.556960E+3,	32.875181E-9
1.556964E+3,	20.556418E-9
1.556968E+3,	15.423977E-9
1.556972E+3,	16.823485E-9
1.556976E+3,	24.306193E-9
1.556980E+3,	41.171940E-9
1.556984E+3,	62.196410E-9
1.556988E+3,	82.584707E-9
1.556992E+3,	109.648291E-9
1.556996E+3,	132.420270E-9
1.557000E+3,	147.346899E-9
1.557004E+3,	159.256515E-9
1.557008E+3,	165.238965E-9
1.557012E+3,	162.098923E-9
1.557016E+3,	152.474968E-9
1.557020E+3,	133.281497E-9
1.557024E+3,	110.735889E-9
1.557028E+3,	89.969182E-9
1.557032E+3,	67.247956E-9
1.557036E+3,	43.447549E-9
1.557040E+3,	26.854841E-9
1.557044E+3,	19.243152E-9
1.557048E+3,	17.882471E-9
1.557052E+3,	24.286023E-9
1.557056E+3,	35.271184E-9
1.557060E+3,	52.963441E-9
1.557064E+3,	80.088671E-9
1.557068E+3,	106.496238E-9
1.557072E+3,	126.816219E-9
1.557076E+3,	146.168220E-9
1.557080E+3,	163.358967E-9
1.557084E+3,	173.123254E-9
1.557088E+3,	174.574139E-9
1.557092E+3,	166.815216E-9
1.557096E+3,	151.899027E-9
1.557100E+3,	136.352566E-9
1.557104E+3,	115.723695E-9
1.557108E+3,	87.079027E-9
1.557112E+3,	61.193530E-9
1.557116E+3,	43.200040E-9
1.557120E+3,	25.562777E-9
1.557124E+3,	17.318507E-9
1.557128E+3,	17.604614E-9
1.557132E+3,	24.071598E-9
1.557136E+3,	40.458969E-9
1.557140E+3,	61.865658E-9
1.557144E+3,	83.373334E-9
1.557148E+3,	112.874790E-9
1.557152E+3,	137.123981E-9
1.557156E+3,	153.292034E-9
1.557160E+3,	166.632645E-9
1.557164E+3,	174.706236E-9
1.557168E+3,	173.946902E-9
1.557172E+3,	166.165898E-9
1.557176E+3,	147.965735E-9
1.557180E+3,	126.840944E-9
1.557184E+3,	106.931751E-9
1.557188E+3,	83.902087E-9
1.557192E+3,	57.257927E-9
1.557196E+3,	36.895182E-9
1.557200E+3,	25.014766E-9
1.557204E+3,	17.546445E-9
1.557208E+3,	18.426022E-9
1.557212E+3,	25.055939E-9
1.557216E+3,	38.117613E-9
1.557220E+3,	60.664110E-9
1.557224E+3,	84.432370E-9
1.557228E+3,	104.542763E-9
1.557232E+3,	128.471172E-9
1.557236E+3,	146.391595E-9
1.557240E+3,	156.606469E-9
1.557244E+3,	161.796014E-9
1.557248E+3,	158.694311E-9
1.557252E+3,	147.912750E-9
1.557256E+3,	133.639747E-9
1.557260E+3,	110.310476E-9
1.557264E+3,	87.859052E-9
1.557268E+3,	69.174124E-9
1.557272E+3,	50.408233E-9
1.557276E+3,	33.723426E-9
1.557280E+3,	24.689082E-9
1.557284E+3,	23.493396E-9
1.557288E+3,	29.595405E-9
1.557292E+3,	41.492782E-9
1.557296E+3,	54.746789E-9
1.557300E+3,	71.754995E-9
1.557304E+3,	95.116604E-9
1.557308E+3,	115.621574E-9
1.557312E+3,	129.241804E-9
1.557316E+3,	142.102337E-9
1.557320E+3,	147.889496E-9
1.557324E+3,	147.692911E-9
1.557328E+3,	142.115744E-9
1.557332E+3,	127.513499E-9
1.557336E+3,	109.256663E-9
1.557340E+3,	92.887260E-9
1.557344E+3,	71.191711E-9
1.557348E+3,	52.773345E-9
1.557352E+3,	40.418535E-9
1.557356E+3,	31.112716E-9
1.557360E+3,	28.016061E-9
1.557364E+3,	32.330818E-9
1.557368E+3,	41.218193E-9
1.557372E+3,	57.929186E-9
1.557376E+3,	76.368722E-9
1.557380E+3,	93.304128E-9
1.557384E+3,	112.055160E-9
1.557388E+3,	131.042652E-9
1.557392E+3,	142.279657E-9
1.557396E+3,	146.331632E-9
1.557400E+3,	145.846729E-9
1.557404E+3,	137.904494E-9
1.557408E+3,	124.708966E-9
1.557412E+3,	109.415643E-9
1.557416E+3,	86.207959E-9
1.557420E+3,	65.510111E-9
1.557424E+3,	49.927325E-9
1.557428E+3,	35.847674E-9
1.557432E+3,	24.373958E-9
1.557436E+3,	20.172008E-9
1.557440E+3,	22.887775E-9
1.557444E+3,	33.908525E-9
1.557448E+3,	49.585442E-9
1.557452E+3,	66.611383E-9
1.557456E+3,	86.863982E-9
1.557460E+3,	110.815132E-9
1.557464E+3,	131.631817E-9
1.557468E+3,	145.454734E-9
1.557472E+3,	157.304270E-9
1.557476E+3,	160.725580E-9
1.557480E+3,	157.111813E-9
1.557484E+3,	147.432098E-9
1.557488E+3,	128.219118E-9
1.557492E+3,	105.158123E-9
1.557496E+3,	84.244447E-9
1.557500E+3,	57.672571E-9
1.557504E+3,	37.706210E-9
1.557508E+3,	25.927067E-9
1.557512E+3,	17.725378E-9
1.557516E+3,	17.256478E-9
1.557520E+3,	25.122636E-9
1.557524E+3,	37.571711E-9
1.557528E+3,	59.502370E-9
1.557532E+3,	82.983942E-9
1.557536E+3,	103.416126E-9
1.557540E+3,	125.443141E-9
1.557544E+3,	148.596850E-9
1.557548E+3,	164.135129E-9
1.557552E+3,	171.042041E-9
1.557556E+3,	171.560488E-9
1.557560E+3,	164.938468E-9
1.557564E+3,	153.833855E-9
1.557568E+3,	135.880243E-9
1.557572E+3,	108.541287E-9
1.557576E+3,	82.367819E-9
1.557580E+3,	62.590764E-9
1.557584E+3,	40.794240E-9
1.557588E+3,	25.754169E-9
1.557592E+3,	19.028009E-9
1.557596E+3,	17.636431E-9
1.557600E+3,	25.482528E-9
1.557604E+3,	40.704879E-9
1.557608E+3,	58.234508E-9
1.557612E+3,	84.413781E-9
1.557616E+3,	109.975795E-9
1.557620E+3,	130.243781E-9
1.557624E+3,	149.478650E-9
1.557628E+3,	166.550269E-9
1.557632E+3,	174.556875E-9
1.557636E+3,	174.107171E-9
1.557640E+3,	165.207528E-9
1.557644E+3,	150.024440E-9
1.557648E+3,	132.549498E-9
1.557652E+3,	109.890015E-9
1.557656E+3,	81.858479E-9
1.557660E+3,	57.758520E-9
1.557664E+3,	41.422367E-9
1.557668E+3,	25.265767E-9
1.557672E+3,	17.099596E-9
1.557676E+3,	16.747937E-9
1.557680E+3,	22.624889E-9
1.557684E+3,	38.304391E-9
1.557688E+3,	57.753506E-9
1.557692E+3,	75.921316E-9
1.557696E+3,	102.189536E-9
1.557700E+3,	126.897086E-9
1.557704E+3,	144.644655E-9
1.557708E+3,	159.844380E-9
1.557712E+3,	169.749319E-9
1.557716E+3,	170.925104E-9
1.557720E+3,	165.817015E-9
1.557724E+3,	150.961183E-9
1.557728E+3,	131.088747E-9
1.557732E+3,	110.725439E-9
1.557736E+3,	86.988694E-9
1.557740E+3,	60.732149E-9
1.557744E+3,	40.959977E-9
1.557748E+3,	29.241277E-9
1.557752E+3,	21.019077E-9
1.557756E+3,	20.398827E-9
1.557760E+3,	27.842802E-9
1.557764E+3,	39.629681E-9
1.557768E+3,	60.229358E-9
1.557772E+3,	81.296720E-9
1.557776E+3,	98.782699E-9
1.557780E+3,	117.720030E-9
1.557784E+3,	137.122355E-9
1.557788E+3,	149.716237E-9
1.557792E+3,	154.212443E-9
1.557796E+3,	152.471320E-9
1.557800E+3,	144.395505E-9
1.557804E+3,	132.772381E-9
1.557808E+3,	116.722713E-9
1.557812E+3,	94.025835E-9
1.557816E+3,	72.076460E-9
1.557820E+3,	56.104287E-9
1.557824E+3,	39.101864E-9
1.557828E+3,	29.089183E-9
1.557832E+3,	26.227580E-9
1.557836E+3,	28.277407E-9
1.557840E+3,	38.696304E-9
1.557844E+3,	53.594622E-9
1.557848E+3,	68.243925E-9
1.557852E+3,	88.966750E-9
1.557856E+3,	107.510143E-9
1.557860E+3,	120.215189E-9
1.557864E+3,	130.860648E-9
1.557868E+3,	136.935367E-9
1.557872E+3,	135.996841E-9
1.557876E+3,	129.715594E-9
1.557880E+3,	115.212181E-9
1.557884E+3,	97.744919E-9
1.557888E+3,	81.658253E-9
1.557892E+3,	63.412047E-9
1.557896E+3,	44.039218E-9
1.557900E+3,	30.355383E-9
1.557904E+3,	24.050860E-9
1.557908E+3,	22.655514E-9
1.557912E+3,	27.672751E-9
1.557916E+3,	36.927369E-9
1.557920E+3,	51.819357E-9
1.557924E+3,	73.510891E-9
1.557928E+3,	94.543541E-9
1.557932E+3,	110.956774E-9
1.557936E+3,	129.472395E-9
1.557940E+3,	142.418479E-9
1.557944E+3,	148.566171E-9
1.557948E+3,	149.666785E-9
1.557952E+3,	142.288366E-9
1.557956E+3,	129.789962E-9
1.557960E+3,	115.497731E-9
1.557964E+3,	92.666585E-9
1.557968E+3,	70.284242E-9
1.557972E+3,	52.066442E-9
1.557976E+3,	34.666491E-9
1.557980E+3,	21.791223E-9
1.557984E+3,	17.203411E-9
1.557988E+3,	19.551076E-9
1.557992E+3,	30.798968E-9
1.557996E+3,	47.999277E-9
1.558000E+3,	66.533939E-9
1.558004E+3,	88.526993E-9
1.558008E+3,	115.007851E-9
1.558012E+3,	137.060906E-9
1.558016E+3,	150.937272E-9
1.558020E+3,	162.790582E-9
1.558024E+3,	166.781965E-9
1.558028E+3,	163.883913E-9
1.558032E+3,	154.457522E-9
1.558036E+3,	135.337968E-9
1.558040E+3,	114.252283E-9
1.558044E+3,	95.464715E-9
1.558048E+3,	70.109086E-9
1.558052E+3,	47.683326E-9
1.558056E+3,	32.536081E-9
1.558060E+3,	19.839572E-9
1.558064E+3,	16.396833E-9
1.558068E+3,	19.839740E-9
1.558072E+3,	29.626763E-9
1.558076E+3,	50.513560E-9
1.558080E+3,	75.557371E-9
1.558084E+3,	97.910400E-9
1.558088E+3,	126.381097E-9
1.558092E+3,	148.798302E-9
1.558096E+3,	163.380634E-9
1.558100E+3,	173.828491E-9
1.558104E+3,	176.556943E-9
1.558108E+3,	170.440070E-9
1.558112E+3,	158.764031E-9
1.558116E+3,	136.139830E-9
1.558120E+3,	110.619270E-9
1.558124E+3,	88.226946E-9
1.558128E+3,	64.976973E-9
1.558132E+3,	41.560693E-9
1.558136E+3,	25.354793E-9
1.558140E+3,	18.259891E-9
1.558144E+3,	18.484740E-9
1.558148E+3,	26.945569E-9
1.558152E+3,	39.278871E-9
1.558156E+3,	62.872888E-9
1.558160E+3,	88.850977E-9
1.558164E+3,	111.175491E-9
1.558168E+3,	134.132050E-9
1.558172E+3,	155.806825E-9
1.558176E+3,	170.830842E-9
1.558180E+3,	178.123460E-9
1.558184E+3,	178.860238E-9
1.558188E+3,	170.766755E-9
1.558192E+3,	157.577816E-9
1.558196E+3,	137.676310E-9
1.558200E+3,	110.061212E-9
1.558204E+3,	83.808764E-9
1.558208E+3,	63.297184E-9
1.558212E+3,	39.576131E-9
1.558216E+3,	23.624823E-9
1.558220E+3,	17.373928E-9
1.558224E+3,	17.473818E-9
1.558228E+3,	27.127414E-9
1.558232E+3,	43.622248E-9
1.558236E+3,	61.562065E-9
1.558240E+3,	89.025058E-9
1.558244E+3,	114.661873E-9
1.558248E+3,	133.043724E-9
1.558252E+3,	151.763754E-9
1.558256E+3,	162.726715E-9
1.558260E+3,	166.145788E-9
1.558264E+3,	163.879957E-9
1.558268E+3,	152.365173E-9
1.558272E+3,	134.810182E-9
1.558276E+3,	116.818464E-9
1.558280E+3,	90.564641E-9
1.558284E+3,	67.638124E-9
1.558288E+3,	51.061893E-9
1.558292E+3,	35.227851E-9
1.558296E+3,	22.844844E-9
1.558300E+3,	19.009963E-9
1.558304E+3,	21.821494E-9
1.558308E+3,	32.554823E-9
1.558312E+3,	49.079229E-9
1.558316E+3,	65.117040E-9
1.558320E+3,	84.634602E-9
1.558324E+3,	108.622486E-9
1.558328E+3,	127.561694E-9
1.558332E+3,	139.143666E-9
1.558336E+3,	147.429880E-9
1.558340E+3,	148.126474E-9
1.558344E+3,	142.820892E-9
1.558348E+3,	128.776482E-9
1.558352E+3,	110.615625E-9
1.558356E+3,	93.512387E-9
1.558360E+3,	75.033484E-9
1.558364E+3,	54.735881E-9
1.558368E+3,	38.747484E-9
1.558372E+3,	29.871379E-9
1.558376E+3,	25.214774E-9
1.558380E+3,	27.840832E-9
1.558384E+3,	35.315854E-9
1.558388E+3,	48.162306E-9
1.558392E+3,	68.028588E-9
1.558396E+3,	88.103332E-9
1.558400E+3,	104.889431E-9
1.558404E+3,	125.243215E-9
1.558408E+3,	139.780024E-9
1.558412E+3,	146.825734E-9
1.558416E+3,	150.143736E-9
1.558420E+3,	146.491059E-9
1.558424E+3,	136.601977E-9
1.558428E+3,	123.746112E-9
1.558432E+3,	101.854495E-9
1.558436E+3,	79.837877E-9
1.558440E+3,	62.182024E-9
1.558444E+3,	42.039288E-9
1.558448E+3,	27.754347E-9
1.558452E+3,	20.669517E-9
1.558456E+3,	18.581631E-9
1.558460E+3,	25.264119E-9
1.558464E+3,	38.093035E-9
1.558468E+3,	53.382410E-9
1.558472E+3,	76.981791E-9
1.558476E+3,	100.359756E-9
1.558480E+3,	119.050861E-9
1.558484E+3,	136.331108E-9
1.558488E+3,	151.330559E-9
1.558492E+3,	158.550243E-9
1.558496E+3,	158.310814E-9
1.558500E+3,	149.944860E-9
1.558504E+3,	135.583175E-9
1.558508E+3,	119.494282E-9
1.558512E+3,	99.045106E-9
1.558516E+3,	73.082666E-9
1.558520E+3,	50.759437E-9
1.558524E+3,	36.309140E-9
1.558528E+3,	22.274099E-9
1.558532E+3,	15.898435E-9
1.558536E+3,	17.158165E-9
1.558540E+3,	27.573187E-9
1.558544E+3,	44.785446E-9
1.558548E+3,	62.001417E-9
1.558552E+3,	83.237481E-9
1.558556E+3,	110.030451E-9
1.558560E+3,	134.148915E-9
1.558564E+3,	151.306056E-9
1.558568E+3,	166.792682E-9
1.558572E+3,	172.559164E-9
1.558576E+3,	170.759405E-9
1.558580E+3,	162.667933E-9
1.558584E+3,	143.849187E-9
1.558588E+3,	121.147006E-9
1.558592E+3,	99.550470E-9
1.558596E+3,	70.980930E-9
1.558600E+3,	48.043988E-9
1.558604E+3,	33.339189E-9
1.558608E+3,	20.717904E-9
1.558612E+3,	17.176083E-9
1.558616E+3,	21.583347E-9
1.558620E+3,	33.544011E-9
1.558624E+3,	55.427349E-9
1.558628E+3,	79.712428E-9
1.558632E+3,	101.410641E-9
1.558636E+3,	129.582890E-9
1.558640E+3,	152.822639E-9
1.558644E+3,	168.113061E-9
1.558648E+3,	179.159944E-9
1.558652E+3,	182.191592E-9
1.558656E+3,	176.769555E-9
1.558660E+3,	166.134913E-9
1.558664E+3,	145.089300E-9
1.558668E+3,	120.545602E-9
1.558672E+3,	97.631123E-9
1.558676E+3,	72.530582E-9
1.558680E+3,	47.280106E-9
1.558684E+3,	29.651661E-9
1.558688E+3,	20.585283E-9
1.558692E+3,	17.454669E-9
1.558696E+3,	23.615480E-9
1.558700E+3,	35.792819E-9
1.558704E+3,	60.588774E-9
1.558708E+3,	87.380184E-9
1.558712E+3,	108.838588E-9
1.558716E+3,	131.232873E-9
1.558720E+3,	154.138987E-9
1.558724E+3,	169.775014E-9
1.558728E+3,	175.616661E-9
1.558732E+3,	173.919048E-9
1.558736E+3,	164.850053E-9
1.558740E+3,	151.777143E-9
1.558744E+3,	132.665704E-9
1.558748E+3,	105.050428E-9
1.558752E+3,	78.966551E-9
1.558756E+3,	59.559624E-9
1.558760E+3,	37.678976E-9
1.558764E+3,	23.662643E-9
1.558768E+3,	17.962266E-9
1.558772E+3,	17.592264E-9
1.558776E+3,	26.736260E-9
1.558780E+3,	42.514218E-9
1.558784E+3,	58.965602E-9
1.558788E+3,	84.170000E-9
1.558792E+3,	108.033059E-9
1.558796E+3,	125.754569E-9
1.558800E+3,	146.218510E-9
1.558804E+3,	159.457143E-9
1.558808E+3,	163.718099E-9
1.558812E+3,	162.040973E-9
1.558816E+3,	151.625182E-9
1.558820E+3,	135.953080E-9
1.558824E+3,	118.871494E-9
1.558828E+3,	92.424848E-9
1.558832E+3,	67.409166E-9
1.558836E+3,	49.468260E-9
1.558840E+3,	34.076797E-9
1.558844E+3,	22.779934E-9
1.558848E+3,	19.133490E-9
1.558852E+3,	22.032147E-9
1.558856E+3,	34.086224E-9
1.558860E+3,	51.138295E-9
1.558864E+3,	67.628778E-9
1.558868E+3,	86.469795E-9
1.558872E+3,	108.077519E-9
1.558876E+3,	125.107562E-9
1.558880E+3,	136.255378E-9
1.558884E+3,	144.329291E-9
1.558888E+3,	144.379249E-9
1.558892E+3,	138.919632E-9
1.558896E+3,	125.881791E-9
1.558900E+3,	108.972525E-9
1.558904E+3,	92.095750E-9
1.558908E+3,	72.153560E-9
1.558912E+3,	50.524716E-9
1.558916E+3,	33.842146E-9
1.558920E+3,	24.245479E-9
1.558924E+3,	18.928459E-9
1.558928E+3,	20.711103E-9
1.558932E+3,	28.134485E-9
1.558936E+3,	41.683352E-9
1.558940E+3,	63.357713E-9
1.558944E+3,	85.022699E-9
1.558948E+3,	103.258472E-9
1.558952E+3,	124.916172E-9
1.558956E+3,	139.762653E-9
1.558960E+3,	146.975356E-9
1.558964E+3,	149.263048E-9
1.558968E+3,	143.152557E-9
1.558972E+3,	130.374487E-9
1.558976E+3,	115.588053E-9
1.558980E+3,	92.968542E-9
1.558984E+3,	71.296397E-9
1.558988E+3,	53.705177E-9
1.558992E+3,	33.918903E-9
1.558996E+3,	21.231477E-9
1.559000E+3,	16.094645E-9
1.559004E+3,	16.094833E-9
1.559008E+3,	23.977694E-9
1.559012E+3,	37.759796E-9
1.559016E+3,	53.520037E-9
1.559020E+3,	79.232678E-9
1.559024E+3,	103.985069E-9
1.559028E+3,	122.001343E-9
1.559032E+3,	141.717641E-9
1.559036E+3,	154.434626E-9
1.559040E+3,	159.454192E-9
1.559044E+3,	159.213097E-9
1.559048E+3,	150.038600E-9
1.559052E+3,	134.847375E-9
1.559056E+3,	119.138351E-9
1.559060E+3,	95.380666E-9
1.559064E+3,	71.774266E-9
1.559068E+3,	52.909301E-9
1.559072E+3,	32.271008E-9
1.559076E+3,	20.164659E-9
1.559080E+3,	16.585304E-9
1.559084E+3,	18.301188E-9
1.559088E+3,	29.330140E-9
1.559092E+3,	46.827737E-9
1.559096E+3,	65.105949E-9
1.559100E+3,	92.814979E-9
1.559104E+3,	118.036641E-9
1.559108E+3,	135.742336E-9
1.559112E+3,	154.978496E-9
1.559116E+3,	166.269490E-9
1.559120E+3,	169.722852E-9
1.559124E+3,	167.843383E-9
1.559128E+3,	156.911170E-9
1.559132E+3,	140.212798E-9
1.559136E+3,	122.813913E-9
1.559140E+3,	98.559360E-9
1.559144E+3,	75.817370E-9
1.559148E+3,	57.194168E-9
1.559152E+3,	36.434298E-9
1.559156E+3,	23.777151E-9
1.559160E+3,	19.946765E-9
1.559164E+3,	21.635257E-9
1.559168E+3,	32.246796E-9
1.559172E+3,	48.748322E-9
1.559176E+3,	67.516959E-9
1.559180E+3,	95.100589E-9
1.559184E+3,	120.048839E-9
1.559188E+3,	138.592485E-9
1.559192E+3,	158.138573E-9
1.559196E+3,	170.375027E-9
1.559200E+3,	174.424566E-9
1.559204E+3,	171.921706E-9
1.559208E+3,	159.837556E-9
1.559212E+3,	142.115430E-9
1.559216E+3,	123.790790E-9
1.559220E+3,	97.166134E-9
1.559224E+3,	72.411072E-9
1.559228E+3,	53.839084E-9
1.559232E+3,	34.083037E-9
1.559236E+3,	22.034958E-9
1.559240E+3,	18.118373E-9
1.559244E+3,	20.049638E-9
1.559248E+3,	30.479345E-9
1.559252E+3,	46.150321E-9
1.559256E+3,	63.658241E-9
1.559260E+3,	91.266245E-9
1.559264E+3,	116.581904E-9
1.559268E+3,	134.473170E-9
1.559272E+3,	153.704130E-9
1.559276E+3,	166.001410E-9
1.559280E+3,	170.490697E-9
1.559284E+3,	168.555199E-9
1.559288E+3,	156.928816E-9
1.559292E+3,	139.875867E-9
1.559296E+3,	121.765776E-9
1.559300E+3,	94.632647E-9
1.559304E+3,	70.102275E-9
1.559308E+3,	51.393683E-9
1.559312E+3,	30.939750E-9
1.559316E+3,	19.074484E-9
1.559320E+3,	15.884440E-9
1.559324E+3,	18.576401E-9
1.559328E+3,	29.987238E-9
1.559332E+3,	47.017570E-9
1.559336E+3,	65.633279E-9
1.559340E+3,	93.064481E-9
1.559344E+3,	116.809651E-9
1.559348E+3,	133.175169E-9
1.559352E+3,	149.322506E-9
1.559356E+3,	158.258381E-9
1.559360E+3,	159.808374E-9
1.559364E+3,	155.151869E-9
1.559368E+3,	140.940664E-9
1.559372E+3,	122.499524E-9
1.559376E+3,	105.387455E-9
1.559380E+3,	80.779073E-9
1.559384E+3,	58.533617E-9
1.559388E+3,	42.226237E-9
1.559392E+3,	26.096632E-9
1.559396E+3,	18.143047E-9
1.559400E+3,	17.441875E-9
1.559404E+3,	22.434769E-9
1.559408E+3,	36.275825E-9
1.559412E+3,	54.518026E-9
1.559416E+3,	71.735331E-9
1.559420E+3,	96.028543E-9
1.559424E+3,	117.045672E-9
1.559428E+3,	130.901486E-9
1.559432E+3,	142.410306E-9
1.559436E+3,	146.480128E-9
1.559440E+3,	144.117589E-9
1.559444E+3,	135.686870E-9
1.559448E+3,	117.710924E-9
1.559452E+3,	97.228434E-9
1.559456E+3,	79.924543E-9
1.559460E+3,	57.227606E-9
1.559464E+3,	38.300204E-9
1.559468E+3,	26.512787E-9
1.559472E+3,	17.827128E-9
1.559476E+3,	17.615854E-9
1.559480E+3,	22.974602E-9
1.559484E+3,	34.118497E-9
1.559488E+3,	54.483819E-9
1.559492E+3,	76.484528E-9
1.559496E+3,	95.163953E-9
1.559500E+3,	119.245786E-9
1.559504E+3,	138.483750E-9
1.559508E+3,	149.264652E-9
1.559512E+3,	156.615471E-9
1.559516E+3,	156.477793E-9
1.559520E+3,	150.657302E-9
1.559524E+3,	138.520918E-9
1.559528E+3,	117.295375E-9
1.559532E+3,	94.568804E-9
1.559536E+3,	74.551407E-9
1.559540E+3,	50.682299E-9
1.559544E+3,	32.570827E-9
1.559548E+3,	21.754816E-9
1.559552E+3,	15.729370E-9
1.559556E+3,	18.769494E-9
1.559560E+3,	28.015386E-9
1.559564E+3,	43.492744E-9
1.559568E+3,	67.171995E-9
1.559572E+3,	91.140188E-9
1.559576E+3,	111.283144E-9
1.559580E+3,	136.238463E-9
1.559584E+3,	153.883674E-9
1.559588E+3,	162.639682E-9
1.559592E+3,	166.193625E-9
1.559596E+3,	162.226325E-9
1.559600E+3,	152.521653E-9
1.559604E+3,	136.367122E-9
1.559608E+3,	112.174729E-9
1.559612E+3,	88.446622E-9
1.559616E+3,	69.675207E-9
1.559620E+3,	47.379840E-9
1.559624E+3,	30.861352E-9
1.559628E+3,	22.291569E-9
1.559632E+3,	19.086215E-9
1.559636E+3,	24.179237E-9
1.559640E+3,	34.550344E-9
1.559644E+3,	50.637450E-9
1.559648E+3,	74.389045E-9
1.559652E+3,	98.919529E-9
1.559656E+3,	119.722823E-9
1.559660E+3,	144.255406E-9
1.559664E+3,	160.860146E-9
1.559668E+3,	168.707733E-9
1.559672E+3,	170.559429E-9
1.559676E+3,	164.735982E-9
1.559680E+3,	154.009543E-9
1.559684E+3,	136.747071E-9
1.559688E+3,	109.626500E-9
1.559692E+3,	83.544023E-9
1.559696E+3,	63.853026E-9
1.559700E+3,	42.779848E-9
1.559704E+3,	29.055899E-9
1.559708E+3,	22.791757E-9
1.559712E+3,	23.368006E-9
1.559716E+3,	32.116294E-9
1.559720E+3,	45.068482E-9
1.559724E+3,	63.116413E-9
1.559728E+3,	88.013384E-9
1.559732E+3,	112.459546E-9
1.559736E+3,	132.270819E-9
1.559740E+3,	154.132207E-9
1.559744E+3,	168.469058E-9
1.559748E+3,	174.130867E-9
1.559752E+3,	172.762327E-9
1.559756E+3,	164.010738E-9
1.559760E+3,	151.399842E-9
1.559764E+3,	131.857104E-9
1.559768E+3,	103.655165E-9
1.559772E+3,	77.608611E-9
1.559776E+3,	58.694837E-9
1.559780E+3,	38.382612E-9
1.559784E+3,	24.827146E-9
1.559788E+3,	19.428785E-9
1.559792E+3,	21.351492E-9
1.559796E+3,	31.110284E-9
1.559800E+3,	44.411063E-9
1.559804E+3,	63.466636E-9
1.559808E+3,	89.687112E-9
1.559812E+3,	114.440291E-9
1.559816E+3,	133.157454E-9
1.559820E+3,	153.372139E-9
1.559824E+3,	165.227535E-9
1.559828E+3,	168.002223E-9
1.559832E+3,	162.570561E-9
1.559836E+3,	151.076500E-9
1.559840E+3,	136.308168E-9
1.559844E+3,	115.340502E-9
1.559848E+3,	88.577040E-9
1.559852E+3,	65.089855E-9
1.559856E+3,	48.306375E-9
1.559860E+3,	30.312961E-9
1.559864E+3,	19.253118E-9
1.559868E+3,	15.577042E-9
1.559872E+3,	18.748617E-9
1.559876E+3,	29.128899E-9
1.559880E+3,	42.106024E-9
1.559884E+3,	59.501217E-9
1.559888E+3,	84.422417E-9
1.559892E+3,	108.005058E-9
1.559896E+3,	125.269079E-9
1.559900E+3,	143.890742E-9
1.559904E+3,	154.082854E-9
1.559908E+3,	156.332101E-9
1.559912E+3,	151.630611E-9
1.559916E+3,	140.605872E-9
1.559920E+3,	127.444329E-9
1.559924E+3,	109.042618E-9
1.559928E+3,	83.655318E-9
1.559932E+3,	60.545457E-9
1.559936E+3,	43.886084E-9
1.559940E+3,	27.674036E-9
1.559944E+3,	18.186527E-9
1.559948E+3,	15.568280E-9
1.559952E+3,	20.436096E-9
1.559956E+3,	32.251772E-9
1.559960E+3,	45.684944E-9
1.559964E+3,	62.709376E-9
1.559968E+3,	85.455041E-9
1.559972E+3,	106.531021E-9
1.559976E+3,	122.546035E-9
1.559980E+3,	138.503577E-9
1.559984E+3,	146.640437E-9
1.559988E+3,	148.010969E-9
1.559992E+3,	142.721190E-9
1.559996E+3,	131.860351E-9
1.560000E+3,	118.947505E-9
1.560004E+3,	100.670646E-9
1.560008E+3,	76.037812E-9
1.560012E+3,	54.059009E-9
1.560016E+3,	38.516560E-9
1.560020E+3,	23.747747E-9
1.560024E+3,	15.824878E-9
1.560028E+3,	14.669491E-9
1.560032E+3,	19.938872E-9
1.560036E+3,	31.005193E-9
1.560040E+3,	43.702729E-9
1.560044E+3,	65.513261E-9
1.560048E+3,	89.039672E-9
1.560052E+3,	108.084560E-9
1.560056E+3,	126.949668E-9
1.560060E+3,	143.655159E-9
1.560064E+3,	152.870091E-9
1.560068E+3,	155.149757E-9
1.560072E+3,	150.320401E-9
1.560076E+3,	139.163933E-9
1.560080E+3,	124.777824E-9
1.560084E+3,	101.506861E-9
1.560088E+3,	78.361861E-9
1.560092E+3,	60.486491E-9
1.560096E+3,	39.776444E-9
1.560100E+3,	24.949857E-9
1.560104E+3,	18.195899E-9
1.560108E+3,	16.743257E-9
1.560112E+3,	24.279631E-9
1.560116E+3,	37.795911E-9
1.560120E+3,	53.532885E-9
1.560124E+3,	78.076089E-9
1.560128E+3,	102.366692E-9
1.560132E+3,	121.991062E-9
1.560136E+3,	142.735219E-9
1.560140E+3,	155.547441E-9
1.560144E+3,	160.340675E-9
1.560148E+3,	158.951306E-9
1.560152E+3,	150.554091E-9
1.560156E+3,	138.055989E-9
1.560160E+3,	119.627928E-9
1.560164E+3,	94.760764E-9
1.560168E+3,	72.981552E-9
1.560172E+3,	56.588976E-9
1.560176E+3,	38.170640E-9
1.560180E+3,	26.064588E-9
1.560184E+3,	21.640792E-9
1.560188E+3,	24.074114E-9
1.560192E+3,	33.233391E-9
1.560196E+3,	45.658626E-9
1.560200E+3,	67.047535E-9
1.560204E+3,	90.062013E-9
1.560208E+3,	110.385849E-9
1.560212E+3,	131.046809E-9
1.560216E+3,	150.086075E-9
1.560220E+3,	161.406342E-9
1.560224E+3,	164.926481E-9
1.560228E+3,	161.289838E-9
1.560232E+3,	151.096071E-9
1.560236E+3,	137.153894E-9
1.560240E+3,	113.136294E-9
1.560244E+3,	89.477747E-9
1.560248E+3,	70.383342E-9
1.560252E+3,	48.396111E-9
1.560256E+3,	33.135911E-9
1.560260E+3,	25.635702E-9
1.560264E+3,	23.088437E-9
1.560268E+3,	29.030142E-9
1.560272E+3,	41.681029E-9
1.560276E+3,	56.366753E-9
1.560280E+3,	79.200986E-9
1.560284E+3,	101.609722E-9
1.560288E+3,	120.469153E-9
1.560292E+3,	142.245523E-9
1.560296E+3,	156.680706E-9
1.560300E+3,	162.920643E-9
1.560304E+3,	163.306654E-9
1.560308E+3,	156.604751E-9
1.560312E+3,	145.603455E-9
1.560316E+3,	128.758106E-9
1.560320E+3,	104.341565E-9
1.560324E+3,	80.980744E-9
1.560328E+3,	62.193212E-9
1.560332E+3,	40.774120E-9
1.560336E+3,	26.498081E-9
1.560340E+3,	19.701757E-9
1.560344E+3,	19.202010E-9
1.560348E+3,	26.494033E-9
1.560352E+3,	38.221344E-9
1.560356E+3,	58.890489E-9
1.560360E+3,	81.157611E-9
1.560364E+3,	100.703891E-9
1.560368E+3,	121.791531E-9
1.560372E+3,	142.967684E-9
1.560376E+3,	155.946233E-9
1.560380E+3,	160.379214E-9
1.560384E+3,	158.236946E-9
1.560388E+3,	149.349080E-9
1.560392E+3,	136.839877E-9
1.560396E+3,	114.398111E-9
1.560400E+3,	91.065229E-9
1.560404E+3,	71.693289E-9
1.560408E+3,	48.318088E-9
1.560412E+3,	31.381029E-9
1.560416E+3,	21.628654E-9
1.560420E+3,	15.537802E-9
1.560424E+3,	16.086379E-9
1.560428E+3,	23.829342E-9
1.560432E+3,	35.558113E-9
1.560436E+3,	55.721651E-9
1.560440E+3,	76.131171E-9
1.560444E+3,	94.011524E-9
1.560448E+3,	117.094719E-9
1.560452E+3,	134.752232E-9
1.560456E+3,	144.453941E-9
1.560460E+3,	148.655163E-9
1.560464E+3,	145.349421E-9
1.560468E+3,	136.816386E-9
1.560472E+3,	122.414423E-9
1.560476E+3,	100.019658E-9
1.560480E+3,	77.653786E-9
1.560484E+3,	59.666412E-9
1.560488E+3,	38.845764E-9
1.560492E+3,	24.368561E-9
1.560496E+3,	17.104988E-9
1.560500E+3,	14.446584E-9
1.560504E+3,	19.027704E-9
1.560508E+3,	28.808073E-9
1.560512E+3,	47.491491E-9
1.560516E+3,	67.264626E-9
1.560520E+3,	84.678790E-9
1.560524E+3,	103.805130E-9
1.560528E+3,	123.943066E-9
1.560532E+3,	137.991422E-9
1.560536E+3,	144.169441E-9
1.560540E+3,	144.692337E-9
1.560544E+3,	138.386610E-9
1.560548E+3,	128.583590E-9
1.560552E+3,	110.482662E-9
1.560556E+3,	89.961515E-9
1.560560E+3,	71.504389E-9
1.560564E+3,	48.410684E-9
1.560568E+3,	31.197545E-9
1.560572E+3,	21.606398E-9
1.560576E+3,	15.367649E-9
1.560580E+3,	15.721237E-9
1.560584E+3,	23.784448E-9
1.560588E+3,	35.828059E-9
1.560592E+3,	57.212740E-9
1.560596E+3,	79.524353E-9
1.560600E+3,	97.845393E-9
1.560604E+3,	120.706460E-9
1.560608E+3,	138.280279E-9
1.560612E+3,	148.373169E-9
1.560616E+3,	153.765590E-9
1.560620E+3,	151.130892E-9
1.560624E+3,	143.526446E-9
1.560628E+3,	129.917624E-9
1.560632E+3,	108.252034E-9
1.560636E+3,	85.984021E-9
1.560640E+3,	67.536788E-9
1.560644E+3,	45.478455E-9
1.560648E+3,	29.982970E-9
1.560652E+3,	21.943675E-9
1.560656E+3,	17.719727E-9
1.560660E+3,	20.503784E-9
1.560664E+3,	28.652023E-9
1.560668E+3,	46.000962E-9
1.560672E+3,	65.135311E-9
1.560676E+3,	82.842161E-9
1.560680E+3,	102.727061E-9
1.560684E+3,	124.171898E-9
1.560688E+3,	141.279475E-9
1.560692E+3,	151.224606E-9
1.560696E+3,	157.180162E-9
1.560700E+3,	155.052877E-9
1.560704E+3,	147.769703E-9
1.560708E+3,	132.028371E-9
1.560712E+3,	112.723671E-9
1.560716E+3,	94.073614E-9
1.560720E+3,	68.914182E-9
1.560724E+3,	48.204606E-9
1.560728E+3,	35.097624E-9
1.560732E+3,	25.257427E-9
1.560736E+3,	20.840408E-9
1.560740E+3,	24.069326E-9
1.560744E+3,	32.431826E-9
1.560748E+3,	50.237071E-9
1.560752E+3,	71.559332E-9
1.560756E+3,	89.855476E-9
1.560760E+3,	113.738589E-9
1.560764E+3,	134.394909E-9
1.560768E+3,	148.345666E-9
1.560772E+3,	160.359486E-9
1.560776E+3,	163.870023E-9
1.560780E+3,	160.613058E-9
1.560784E+3,	149.465475E-9
1.560788E+3,	133.854507E-9
1.560792E+3,	116.624349E-9
1.560796E+3,	95.531682E-9
1.560800E+3,	70.718804E-9
1.560804E+3,	50.361063E-9
1.560808E+3,	37.073230E-9
1.560812E+3,	24.991247E-9
1.560816E+3,	20.341067E-9
1.560820E+3,	22.422850E-9
1.560824E+3,	33.147282E-9
1.560828E+3,	50.289264E-9
1.560832E+3,	67.923514E-9
1.560836E+3,	92.287418E-9
1.560840E+3,	114.143879E-9
1.560844E+3,	131.064541E-9
1.560848E+3,	146.778704E-9
1.560852E+3,	158.451156E-9
1.560856E+3,	161.357938E-9
1.560860E+3,	157.329979E-9
1.560864E+3,	144.863973E-9
1.560868E+3,	127.936992E-9
1.560872E+3,	110.761641E-9
1.560876E+3,	84.635140E-9
1.560880E+3,	61.188322E-9
1.560884E+3,	45.058395E-9
1.560888E+3,	28.248586E-9
1.560892E+3,	18.830879E-9
1.560896E+3,	16.935093E-9
1.560900E+3,	20.243729E-9
1.560904E+3,	32.745520E-9
1.560908E+3,	50.317478E-9
1.560912E+3,	66.910665E-9
1.560916E+3,	90.595030E-9
1.560920E+3,	111.859981E-9
1.560924E+3,	127.084133E-9
1.560928E+3,	143.697569E-9
1.560932E+3,	153.287542E-9
1.560936E+3,	154.852146E-9
1.560940E+3,	148.761859E-9
1.560944E+3,	136.488634E-9
1.560948E+3,	122.262245E-9
1.560952E+3,	102.460888E-9
1.560956E+3,	76.047114E-9
1.560960E+3,	53.467246E-9
1.560964E+3,	37.861778E-9
1.560968E+3,	22.474231E-9
1.560972E+3,	14.836226E-9
1.560976E+3,	14.594245E-9
1.560980E+3,	21.523556E-9
1.560984E+3,	34.607126E-9
1.560988E+3,	49.236670E-9
1.560992E+3,	72.605692E-9
1.560996E+3,	94.398919E-9
1.561000E+3,	110.041451E-9
1.561004E+3,	125.119841E-9
1.561008E+3,	137.929669E-9
1.561012E+3,	143.348325E-9
1.561016E+3,	141.723168E-9
1.561020E+3,	132.627383E-9
1.561024E+3,	119.201555E-9
1.561028E+3,	105.653297E-9
1.561032E+3,	83.401299E-9
1.561036E+3,	61.345201E-9
1.561040E+3,	44.780341E-9
1.561044E+3,	27.382819E-9
1.561048E+3,	17.125612E-9
1.561052E+3,	13.764898E-9
1.561056E+3,	15.774703E-9
1.561060E+3,	24.259232E-9
1.561064E+3,	36.363443E-9
1.561068E+3,	58.146855E-9
1.561072E+3,	80.185663E-9
1.561076E+3,	96.642826E-9
1.561080E+3,	113.553018E-9
1.561084E+3,	129.962639E-9
1.561088E+3,	139.596670E-9
1.561092E+3,	141.579132E-9
1.561096E+3,	135.751519E-9
1.561100E+3,	123.807303E-9
1.561104E+3,	111.131004E-9
1.561108E+3,	90.993339E-9
1.561112E+3,	69.588251E-9
1.561116E+3,	52.459673E-9
1.561120E+3,	32.618476E-9
1.561124E+3,	19.761432E-9
1.561128E+3,	14.833200E-9
1.561132E+3,	14.842936E-9
1.561136E+3,	21.223400E-9
1.561140E+3,	31.221534E-9
1.561144E+3,	50.204683E-9
1.561148E+3,	70.952268E-9
1.561152E+3,	88.169105E-9
1.561156E+3,	106.850119E-9
1.561160E+3,	126.262312E-9
1.561164E+3,	139.485343E-9
1.561168E+3,	145.413076E-9
1.561172E+3,	145.838086E-9
1.561176E+3,	139.059085E-9
1.561180E+3,	128.722150E-9
1.561184E+3,	109.637969E-9
1.561188E+3,	89.035559E-9
1.561192E+3,	71.477884E-9
1.561196E+3,	48.999831E-9
1.561200E+3,	31.400526E-9
1.561204E+3,	22.279301E-9
1.561208E+3,	17.452364E-9
1.561212E+3,	20.041200E-9
1.561216E+3,	27.733070E-9
1.561220E+3,	44.673883E-9
1.561224E+3,	65.285219E-9
1.561228E+3,	83.803045E-9
1.561232E+3,	103.597234E-9
1.561236E+3,	124.520818E-9
1.561240E+3,	140.570443E-9
1.561244E+3,	148.970677E-9
1.561248E+3,	152.797429E-9
1.561252E+3,	149.290868E-9
1.561256E+3,	141.017682E-9
1.561260E+3,	124.053322E-9
1.561264E+3,	104.518400E-9
1.561268E+3,	87.702460E-9
1.561272E+3,	64.529585E-9
1.561276E+3,	45.138861E-9
1.561280E+3,	32.625325E-9
1.561284E+3,	22.308052E-9
1.561288E+3,	19.813110E-9
1.561292E+3,	23.437077E-9
1.561296E+3,	34.855473E-9
1.561300E+3,	50.862333E-9
1.561304E+3,	68.514284E-9
1.561308E+3,	90.276040E-9
1.561312E+3,	115.142606E-9
1.561316E+3,	134.656300E-9
1.561320E+3,	146.454302E-9
1.561324E+3,	156.164352E-9
1.561328E+3,	157.686639E-9
1.561332E+3,	152.336642E-9
1.561336E+3,	137.476993E-9
1.561340E+3,	118.393741E-9
1.561344E+3,	100.843283E-9
1.561348E+3,	76.301307E-9
1.561352E+3,	54.633970E-9
1.561356E+3,	39.222525E-9
1.561360E+3,	24.735555E-9
1.561364E+3,	18.569816E-9
1.561368E+3,	19.307306E-9
1.561372E+3,	27.656513E-9
1.561376E+3,	41.039111E-9
1.561380E+3,	56.374260E-9
1.561384E+3,	76.019163E-9
1.561388E+3,	101.272901E-9
1.561392E+3,	123.220569E-9
1.561396E+3,	137.425779E-9
1.561400E+3,	151.125355E-9
1.561404E+3,	157.771974E-9
1.561408E+3,	157.543595E-9
1.561412E+3,	149.097528E-9
1.561416E+3,	134.455086E-9
1.561420E+3,	118.865850E-9
1.561424E+3,	95.536375E-9
1.561428E+3,	72.900018E-9
1.561432E+3,	54.516640E-9
1.561436E+3,	33.430837E-9
1.561440E+3,	20.223213E-9
1.561444E+3,	15.196780E-9
1.561448E+3,	15.921927E-9
1.561452E+3,	23.085394E-9
1.561456E+3,	34.673145E-9
1.561460E+3,	51.263565E-9
1.561464E+3,	75.321725E-9
1.561468E+3,	97.987072E-9
1.561472E+3,	113.799812E-9
1.561476E+3,	131.414155E-9
1.561480E+3,	142.982288E-9
1.561484E+3,	147.505938E-9
1.561488E+3,	146.126084E-9
1.561492E+3,	137.873752E-9
1.561496E+3,	126.390388E-9
1.561500E+3,	107.321569E-9
1.561504E+3,	87.535027E-9
1.561508E+3,	70.529702E-9
1.561512E+3,	48.792431E-9
1.561516E+3,	31.981028E-9
1.561520E+3,	22.047909E-9
1.561524E+3,	15.592054E-9
1.561528E+3,	15.905174E-9
1.561532E+3,	20.999059E-9
1.561536E+3,	30.960813E-9
1.561540E+3,	49.231101E-9
1.561544E+3,	69.516037E-9
1.561548E+3,	85.997116E-9
1.561552E+3,	107.012851E-9
1.561556E+3,	123.275808E-9
1.561560E+3,	132.683455E-9
1.561564E+3,	138.883407E-9
1.561568E+3,	137.850361E-9
1.561572E+3,	131.284303E-9
1.561576E+3,	116.371215E-9
1.561580E+3,	98.857819E-9
1.561584E+3,	82.366970E-9
1.561588E+3,	60.511361E-9
1.561592E+3,	41.980049E-9
1.561596E+3,	29.589955E-9
1.561600E+3,	19.077362E-9
1.561604E+3,	15.792449E-9
1.561608E+3,	18.154825E-9
1.561612E+3,	25.349194E-9
1.561616E+3,	40.017000E-9
1.561620E+3,	57.563924E-9
1.561624E+3,	74.237341E-9
1.561628E+3,	95.343780E-9
1.561632E+3,	111.852795E-9
1.561636E+3,	122.678822E-9
1.561640E+3,	131.701799E-9
1.561644E+3,	133.889020E-9
1.561648E+3,	130.297382E-9
1.561652E+3,	118.969400E-9
1.561656E+3,	103.511357E-9
1.561660E+3,	87.994079E-9
1.561664E+3,	65.981493E-9
1.561668E+3,	47.255948E-9
1.561672E+3,	33.783862E-9
1.561676E+3,	20.230263E-9
1.561680E+3,	13.689835E-9
1.561684E+3,	13.910683E-9
1.561688E+3,	19.323982E-9
1.561692E+3,	31.604310E-9
1.561696E+3,	47.328380E-9
1.561700E+3,	63.708542E-9
1.561704E+3,	86.781513E-9
1.561708E+3,	105.931177E-9
1.561712E+3,	117.981906E-9
1.561716E+3,	127.822466E-9
1.561720E+3,	131.457933E-9
1.561724E+3,	129.559651E-9
1.561728E+3,	120.458963E-9
1.561732E+3,	106.912830E-9
1.561736E+3,	92.841758E-9
1.561740E+3,	72.949155E-9
1.561744E+3,	55.016723E-9
1.561748E+3,	41.033701E-9
1.561752E+3,	25.313222E-9
1.561756E+3,	15.564340E-9
1.561760E+3,	12.298853E-9
1.561764E+3,	13.426125E-9
1.561768E+3,	20.851814E-9
1.561772E+3,	32.137490E-9
1.561776E+3,	44.245562E-9
1.561780E+3,	62.513746E-9
1.561784E+3,	79.407244E-9
1.561788E+3,	92.324666E-9
1.561792E+3,	105.785412E-9
1.561796E+3,	112.766158E-9
1.561800E+3,	114.196235E-9
1.561804E+3,	110.647734E-9
1.561808E+3,	101.801859E-9
1.561812E+3,	90.749797E-9
1.561816E+3,	73.616536E-9
1.561820E+3,	56.854362E-9
1.561824E+3,	43.422494E-9
1.561828E+3,	28.522050E-9
1.561832E+3,	17.914904E-9
1.561836E+3,	12.416323E-9
1.561840E+3,	10.490081E-9
1.561844E+3,	13.256362E-9
1.561848E+3,	18.566260E-9
1.561852E+3,	27.044582E-9
1.561856E+3,	39.442399E-9
1.561860E+3,	51.558228E-9
1.561864E+3,	60.832725E-9
1.561868E+3,	71.073198E-9
1.561872E+3,	77.573379E-9
1.561876E+3,	79.922473E-9
1.561880E+3,	79.296171E-9
1.561884E+3,	75.067892E-9
1.561888E+3,	68.827815E-9
1.561892E+3,	57.980811E-9
1.561896E+3,	46.745792E-9
1.561900E+3,	37.297139E-9
1.561904E+3,	25.703962E-9
1.561908E+3,	16.855408E-9
1.561912E+3,	11.197909E-9
1.561916E+3,	6.730728E-9
1.561920E+3,	5.693133E-9
1.561924E+3,	7.138537E-9
1.561928E+3,	10.421587E-9
1.561932E+3,	16.318816E-9
1.561936E+3,	22.923815E-9
1.561940E+3,	28.523955E-9
1.561944E+3,	34.909627E-9
1.561948E+3,	39.162286E-9
1.561952E+3,	41.200232E-9
1.561956E+3,	41.668864E-9
1.561960E+3,	40.271679E-9
1.561964E+3,	37.743778E-9
1.561968E+3,	32.796073E-9
1.561972E+3,	27.221201E-9
1.561976E+3,	22.227748E-9
1.561980E+3,	16.138003E-9
1.561984E+3,	11.441260E-9
1.561988E+3,	8.191855E-9
1.561992E+3,	4.978578E-9
1.561996E+3,	3.149841E-9
1.562000E+3,	2.754023E-9
1.562004E+3,	3.246193E-9
1.562008E+3,	4.693726E-9
1.562012E+3,	6.548396E-9
1.562016E+3,	8.328587E-9
1.562020E+3,	10.756264E-9
1.562024E+3,	12.639456E-9
1.562028E+3,	13.722681E-9
1.562032E+3,	14.382860E-9
1.562036E+3,	14.366532E-9
1.562040E+3,	13.815337E-9
1.562044E+3,	12.487559E-9
1.562048E+3,	10.747243E-9
1.562052E+3,	9.107482E-9
1.562056E+3,	6.955213E-9
1.562060E+3,	5.143348E-9
1.562064E+3,	3.879039E-9
1.562068E+3,	2.507449E-9
1.562072E+3,	1.690809E-9
1.562076E+3,	1.323999E-9
1.562080E+3,	1.210561E-9
1.562084E+3,	1.340925E-9
1.562088E+3,	1.567829E-9
1.562092E+3,	1.981724E-9
1.562096E+3,	2.385522E-9
1.562100E+3,	2.653628E-9
1.562104E+3,	2.918526E-9
1.562108E+3,	3.019725E-9
1.562112E+3,	2.980088E-9
1.562116E+3,	2.845740E-9
1.562120E+3,	2.589462E-9
1.562124E+3,	2.300895E-9
1.562128E+3,	1.918277E-9
1.562132E+3,	1.520904E-9
1.562136E+3,	1.237132E-9
1.562140E+3,	891.406700E-12
1.562144E+3,	649.046352E-12
1.562148E+3,	493.352195E-12
1.562152E+3,	356.342820E-12
1.562156E+3,	274.057233E-12
1.562160E+3,	234.726868E-12
1.562164E+3,	209.932786E-12
1.562168E+3,	240.169289E-12
1.562172E+3,	241.720629E-12
1.562176E+3,	237.574945E-12
1.562180E+3,	268.308259E-12
1.562184E+3,	232.501310E-12
1.562188E+3,	260.133140E-12
1.562192E+3,	252.996591E-12
1.562196E+3,	228.063129E-12
1.562200E+3,	211.687011E-12
1.562204E+3,	225.181519E-12
1.562208E+3,	220.639287E-12
1.562212E+3,	177.699082E-12
1.562216E+3,	192.433546E-12
1.562220E+3,	146.130148E-12
1.562224E+3,	129.234773E-12
1.562228E+3,	107.157194E-12
1.562232E+3,	102.441928E-12
1.562236E+3,	76.172958E-12
1.562240E+3,	59.648260E-12
1.562244E+3,	38.628518E-12
1.562248E+3,	44.459620E-12
1.562252E+3,	54.689752E-12
1.562256E+3,	79.256392E-12
1.562260E+3,	110.315613E-12
1.562264E+3,	127.106196E-12
1.562268E+3,	169.126463E-12
1.562272E+3,	228.672815E-12
1.562276E+3,	245.398390E-12
1.562280E+3,	275.810223E-12
1.562284E+3,	290.236178E-12
1.562288E+3,	263.729068E-12
1.562292E+3,	250.108004E-12
1.562296E+3,	232.713559E-12
1.562300E+3,	201.652292E-12
1.562304E+3,	142.094930E-12
1.562308E+3,	114.031925E-12
1.562312E+3,	95.532349E-12
1.562316E+3,	108.012572E-12
1.562320E+3,	112.155793E-12
1.562324E+3,	137.665959E-12
1.562328E+3,	181.814075E-12
1.562332E+3,	224.467563E-12
1.562336E+3,	298.528710E-12
1.562340E+3,	375.065254E-12
1.562344E+3,	433.910649E-12
1.562348E+3,	477.077569E-12
1.562352E+3,	537.989677E-12
1.562356E+3,	546.061231E-12
1.562360E+3,	527.096583E-12
1.562364E+3,	488.112877E-12
1.562368E+3,	473.589938E-12
1.562372E+3,	404.681819E-12
1.562376E+3,	339.538154E-12
1.562380E+3,	284.816255E-12
1.562384E+3,	206.924124E-12
1.562388E+3,	135.340764E-12
1.562392E+3,	111.007711E-12
1.562396E+3,	97.560686E-12
1.562400E+3,	143.798079E-12
1.562404E+3,	166.757231E-12
1.562408E+3,	191.992376E-12
1.562412E+3,	274.006244E-12
1.562416E+3,	318.370481E-12
1.562420E+3,	416.517448E-12
1.562424E+3,	473.106182E-12
1.562428E+3,	534.022217E-12
1.562432E+3,	538.896139E-12
1.562436E+3,	561.634912E-12
1.562440E+3,	561.235501E-12
1.562444E+3,	503.071463E-12
1.562448E+3,	437.802329E-12
1.562452E+3,	402.619658E-12
1.562456E+3,	286.743408E-12
1.562460E+3,	219.059828E-12
1.562464E+3,	172.428026E-12
1.562468E+3,	114.179357E-12
1.562472E+3,	77.324090E-12
1.562476E+3,	60.433289E-12
1.562480E+3,	126.104707E-12
1.562484E+3,	119.850157E-12
1.562488E+3,	176.460863E-12
1.562492E+3,	254.753192E-12
1.562496E+3,	317.245488E-12
1.562500E+3,	373.909289E-12
1.562504E+3,	413.185895E-12
1.562508E+3,	466.777028E-12
1.562512E+3,	483.216971E-12
1.562516E+3,	475.485266E-12
1.562520E+3,	460.004677E-12
1.562524E+3,	373.649822E-12
1.562528E+3,	350.463779E-12
1.562532E+3,	279.721375E-12
1.562536E+3,	205.463160E-12
1.562540E+3,	165.981719E-12
1.562544E+3,	96.786854E-12
1.562548E+3,	79.812367E-12
1.562552E+3,	42.757652E-12
1.562556E+3,	55.343043E-12
1.562560E+3,	79.592220E-12
1.562564E+3,	88.706213E-12
1.562568E+3,	115.800143E-12
1.562572E+3,	196.898577E-12
1.562576E+3,	216.074259E-12
1.562580E+3,	291.360997E-12
1.562584E+3,	312.229375E-12
1.562588E+3,	333.357009E-12
1.562592E+3,	330.353291E-12
1.562596E+3,	350.542506E-12
1.562600E+3,	325.373770E-12
1.562604E+3,	259.286518E-12
1.562608E+3,	223.786269E-12
1.562612E+3,	190.366280E-12
1.562616E+3,	144.825392E-12
1.562620E+3,	75.549258E-12
1.562624E+3,	36.161872E-12
1.562628E+3,	29.423565E-12
1.562632E+3,	53.224428E-12
1.562636E+3,	24.479916E-12
1.562640E+3,	35.608860E-12
1.562644E+3,	58.999633E-12
1.562648E+3,	92.944278E-12
1.562652E+3,	136.489609E-12
1.562656E+3,	172.399297E-12
1.562660E+3,	201.917708E-12
1.562664E+3,	238.356634E-12
1.562668E+3,	242.533802E-12
1.562672E+3,	234.867227E-12
1.562676E+3,	213.805621E-12
1.562680E+3,	177.260910E-12
1.562684E+3,	186.636582E-12
1.562688E+3,	139.832844E-12
1.562692E+3,	92.595473E-12
1.562696E+3,	56.400319E-12
1.562700E+3,	36.589463E-12
1.562704E+3,	13.755513E-12
1.562708E+3,	41.092079E-12
1.562712E+3,	10.870211E-12
1.562716E+3,	33.312520E-12
1.562720E+3,	55.935262E-12
1.562724E+3,	100.593652E-12
1.562728E+3,	157.470930E-12
1.562732E+3,	146.210013E-12
1.562736E+3,	173.765894E-12
1.562740E+3,	199.629790E-12
1.562744E+3,	205.034303E-12
1.562748E+3,	231.869502E-12
1.562752E+3,	220.292999E-12
1.562756E+3,	187.784312E-12
1.562760E+3,	175.689996E-12
1.562764E+3,	156.709727E-12
1.562768E+3,	131.715344E-12
1.562772E+3,	88.433298E-12
1.562776E+3,	67.370823E-12
1.562780E+3,	60.215840E-12
1.562784E+3,	33.104412E-12
1.562788E+3,	21.872612E-12
1.562792E+3,	14.398540E-12
1.562796E+3,	50.959319E-12
1.562800E+3,	77.028790E-12
1.562804E+3,	98.539766E-12
1.562808E+3,	129.396848E-12
1.562812E+3,	138.853912E-12
1.562816E+3,	196.908595E-12
1.562820E+3,	199.692073E-12
1.562824E+3,	202.064945E-12
1.562828E+3,	184.437624E-12
1.562832E+3,	191.147896E-12
1.562836E+3,	175.002318E-12
1.562840E+3,	141.671493E-12
1.562844E+3,	144.842417E-12
1.562848E+3,	95.887442E-12
1.562852E+3,	83.376320E-12
1.562856E+3,	42.574793E-12
1.562860E+3,	45.781343E-12
1.562864E+3,	20.721249E-12
1.562868E+3,	17.754441E-12
1.562872E+3,	27.735739E-12
1.562876E+3,	9.823782E-12
1.562880E+3,	47.602942E-12
1.562884E+3,	81.718735E-12
1.562888E+3,	107.184457E-12
1.562892E+3,	115.483356E-12
1.562896E+3,	149.022950E-12
1.562900E+3,	140.993641E-12
1.562904E+3,	178.182691E-12
1.562908E+3,	155.758849E-12
1.562912E+3,	147.902472E-12
1.562916E+3,	139.709018E-12
1.562920E+3,	132.607623E-12
1.562924E+3,	105.518297E-12
1.562928E+3,	81.035602E-12
1.562932E+3,	64.565294E-12
1.562936E+3,	35.850408E-12
1.562940E+3,	23.369168E-12
1.562944E+3,	4.971074E-12
1.562948E+3,	20.755300E-12
1.562952E+3,	4.881129E-12
1.562956E+3,	19.771387E-12
1.562960E+3,	44.623220E-12
1.562964E+3,	54.195514E-12
1.562968E+3,	61.675035E-12
1.562972E+3,	95.125531E-12
1.562976E+3,	108.850527E-12
1.562980E+3,	127.480411E-12
1.562984E+3,	129.930725E-12
1.562988E+3,	118.746704E-12
1.562992E+3,	121.144015E-12
1.562996E+3,	119.758793E-12
1.563000E+3,	98.721452E-12
1.563004E+3,	71.864131E-12
1.563008E+3,	65.859763E-12
1.563012E+3,	36.879948E-12
1.563016E+3,	50.935720E-12
1.563020E+3,	20.465953E-12
1.563024E+3,	24.990865E-12
1.563028E+3,	0.000000E+0
1.563032E+3,	30.931711E-12
1.563036E+3,	18.999684E-12
1.563040E+3,	4.553429E-12
1.563044E+3,	35.265160E-12
1.563048E+3,	43.148287E-12
1.563052E+3,	47.815582E-12
1.563056E+3,	57.976956E-12
1.563060E+3,	47.193479E-12
1.563064E+3,	57.597597E-12
1.563068E+3,	96.272235E-12
1.563072E+3,	71.562708E-12
1.563076E+3,	78.033592E-12
1.563080E+3,	38.464121E-12
1.563084E+3,	59.269158E-12
1.563088E+3,	41.206674E-12
1.563092E+3,	16.142418E-12
1.563096E+3,	3.162854E-12
1.563100E+3,	14.610535E-12
1.563104E+3,	7.544116E-12
1.563108E+3,	18.807880E-12
1.563112E+3,	5.952231E-12
1.563116E+3,	0.000000E+0
1.563120E+3,	21.775043E-12
1.563124E+3,	15.891810E-12
1.563128E+3,	29.929177E-12
1.563132E+3,	40.788985E-12
1.563136E+3,	50.323066E-12
1.563140E+3,	64.457398E-12
1.563144E+3,	79.616222E-12
1.563148E+3,	51.604642E-12
1.563152E+3,	45.759910E-12
1.563156E+3,	61.416715E-12
1.563160E+3,	51.934734E-12
1.563164E+3,	32.245175E-12
1.563168E+3,	19.548044E-12
1.563172E+3,	31.468469E-12
1.563176E+3,	4.763825E-12
1.563180E+3,	9.736989E-12
1.563184E+3,	10.674565E-12
1.563188E+3,	25.514874E-12
1.563192E+3,	16.559486E-12
1.563196E+3,	15.005711E-12
1.563200E+3,	0.000000E+0
